------------------------------------------------------------------------------------------------------------------
time (s)	 T (K)	 R1 (Ohm)	 Theta1 (deg.)	 X1 (Ohm)	 R2 (Ohm)	 Theta2 (deg.)	 X2 (Ohm)	 Vgate (V) 	 Ileak (nA)
------------------------------------------------------------------------------------------------------------------

1655861148.4772639	9.98600	5.460700000	-9.03	5.393021702	27.303850000	-2.32	27.281431135	 98.000	 1.208
1655861153.7775040	9.98300	10.921450000	-9.03	10.786092785	54.607500000	-2.32	54.562662435	 98.000	 0.598
1655861159.0949881	9.97600	27.303850000	-9.03	26.965454174	109.215500000	-2.30	109.127209202	 98.000	 1.005
1655861164.5747540	9.96300	54.607500000	-9.03	53.930710826	273.047500000	-2.30	272.826765930	 98.000	 -0.987
1655861170.9447720	9.94900	109.215500000	-9.02	107.865503207	546.095000000	-2.30	545.655827872	 98.000	 0.664
1655861176.6934750	9.93500	273.047500000	-9.02	269.667916505	991.140000000	-2.30	990.338753456	 98.000	 -0.897
1655861182.5924101	9.91900	546.095000000	-9.02	539.344799718	991.065000000	-2.30	990.263814087	 98.000	 -0.448
1655861186.3583789	9.90700	995.375000000	-9.02	983.071315466	990.910000000	-2.30	990.113105590	 98.000	 0.608
1655861189.5738151	9.89700	995.335000000	-9.02	983.031809900	990.910000000	-2.30	990.108939390	 98.000	 -0.410
1655861190.7636440	9.89400	995.185000000	-9.02	982.883664028	990.760000000	-2.30	989.963226220	 98.000	 -0.444
1655861191.9514830	9.88900	995.185000000	-9.02	982.883664028	990.760000000	-2.30	989.963226220	 98.000	 -0.004
1655861193.6423430	9.88400	995.185000000	-9.02	982.883664028	990.760000000	-2.30	989.963226220	 98.000	 -0.154
1655861194.8328111	9.87900	995.185000000	-9.02	982.883664028	990.760000000	-2.30	989.959060651	 98.000	 -1.000
1655861196.5382681	9.87600	995.185000000	-9.02	982.883664028	990.760000000	-2.29	989.967380933	 98.000	 -0.312
1655861197.7374310	9.86900	995.185000000	-9.02	982.883664028	990.605000000	-2.30	989.808350872	 98.000	 1.401
1655861199.4375460	9.86400	995.030000000	-9.02	982.730579961	990.605000000	-2.30	989.808350872	 98.000	 0.252
1655861200.6383450	9.85600	995.030000000	-9.02	982.730579961	990.605000000	-2.30	989.808350872	 98.000	 1.393
1655861202.8344979	9.85300	995.030000000	-9.02	982.730579961	990.605000000	-2.30	989.804185955	 98.000	 0.925
1655861204.0343060	9.84700	994.880000000	-9.02	982.582434089	990.455000000	-2.30	989.658471503	 98.000	 0.478
1655861205.7367699	9.84300	994.880000000	-9.02	982.582434089	990.455000000	-2.30	989.654307216	 98.000	 -0.877
1655861206.9395671	9.83700	994.880000000	-9.02	982.582434089	990.455000000	-2.30	989.654307216	 98.000	 -1.105
1655861208.6383941	9.83200	994.880000000	-9.02	982.582434089	990.300000000	-2.30	989.499432520	 98.000	 1.623
1655861209.8402050	9.82600	994.880000000	-9.02	982.566098470	990.455000000	-2.30	989.658471503	 98.000	 1.081
1655861211.5383201	9.82200	994.725000000	-9.02	982.429350021	990.300000000	-2.30	989.503596154	 98.000	 -0.870
1655861212.7411160	9.81400	994.575000000	-9.02	982.281204149	990.150000000	-2.30	989.349553781	 98.000	 0.797
1655861214.4409440	9.81100	994.575000000	-9.02	982.281204149	990.150000000	-2.29	989.357868940	 98.000	 1.266
1655861215.6354079	9.80100	994.575000000	-9.02	982.281204149	990.150000000	-2.30	989.353716785	 98.000	 -0.263
1655861217.8375440	9.79600	994.575000000	-9.02	982.281204149	990.150000000	-2.30	989.353716785	 98.000	 1.611
1655861219.0403371	9.78900	994.420000000	-9.02	982.128120081	990.150000000	-2.30	989.353716785	 98.000	 -0.969
1655861220.7388151	9.78500	994.420000000	-9.02	982.128120081	989.995000000	-2.30	989.198841437	 98.000	 -0.998
1655861221.9456000	9.77800	994.420000000	-9.02	982.128120081	989.995000000	-2.30	989.198841437	 98.000	 0.970
1655861223.6474330	9.77200	994.420000000	-9.02	982.128120081	989.995000000	-2.30	989.198841437	 98.000	 1.519
1655861224.8458779	9.76600	994.265000000	-9.02	981.975036014	989.840000000	-2.30	989.039804388	 98.000	 0.712
1655861226.5443549	9.76100	994.265000000	-9.02	981.975036014	989.840000000	-2.30	989.039804388	 98.000	 0.640
1655861227.7425201	9.75400	994.265000000	-9.02	981.958710493	989.840000000	-2.30	989.039804388	 98.000	 1.407
1655861229.9482901	9.74900	994.115000000	-9.02	981.826890142	989.840000000	-2.30	989.039804388	 98.000	 -0.794
1655861231.1411109	9.74100	994.115000000	-9.02	981.826890142	989.690000000	-2.30	988.889925649	 98.000	 -0.485
1655861232.8449509	9.73600	994.115000000	-9.02	981.826890142	989.690000000	-2.30	988.889925649	 98.000	 -0.952
1655861234.0443799	9.72900	994.115000000	-9.02	981.826890142	989.690000000	-2.30	988.894086719	 98.000	 0.999
1655861235.7462029	9.72400	993.960000000	-9.01	981.690115821	989.690000000	-2.30	988.894086719	 98.000	 -0.714
1655861236.9486451	9.71500	993.960000000	-9.01	981.690115821	989.535000000	-2.30	988.735050953	 98.000	 0.042
1655861238.6474760	9.71100	993.960000000	-9.02	981.673806074	989.535000000	-2.30	988.739211371	 98.000	 1.131
1655861239.8479240	9.70400	993.960000000	-9.02	981.673806074	989.385000000	-2.30	988.585172214	 98.000	 0.389
1655861241.5457621	9.69900	993.960000000	-9.01	981.690115821	989.535000000	-2.30	988.735050953	 98.000	 1.075
1655861242.7501950	9.69100	993.655000000	-9.02	981.372576134	989.535000000	-2.30	988.739211371	 98.000	 -0.683
1655861244.4510250	9.68500	993.655000000	-9.02	981.372576134	989.385000000	-2.30	988.585172214	 98.000	 -0.747
1655861245.6494730	9.68000	993.655000000	-9.02	981.372576134	989.385000000	-2.30	988.589332002	 98.000	 1.400
1655861247.3522930	9.67300	993.655000000	-9.02	981.372576134	989.230000000	-2.30	988.430297517	 98.000	 1.374
1655861248.5537391	9.66400	993.655000000	-9.02	981.372576134	989.230000000	-2.30	988.434456653	 98.000	 -0.491
1655861250.7592299	9.65900	993.505000000	-9.02	981.224430262	989.230000000	-2.30	988.434456653	 98.000	 0.816
1655861251.9546821	9.65200	993.505000000	-9.02	981.224430262	989.080000000	-2.30	988.280418779	 98.000	 0.107
1655861253.6535110	9.64700	993.505000000	-9.02	981.224430262	989.080000000	-2.30	988.284577284	 98.000	 0.755
1655861254.8529630	9.63900	993.505000000	-9.02	981.224430262	989.080000000	-2.30	988.284577284	 98.000	 -0.094
1655861256.5517931	9.63200	993.350000000	-9.02	981.071346195	989.080000000	-2.30	988.284577284	 98.000	 1.494
1655861257.7555881	9.62400	993.350000000	-9.01	981.087645932	988.925000000	-2.30	988.129701936	 98.000	 -0.999
1655861259.4576981	9.61900	993.350000000	-9.02	981.071346195	988.925000000	-2.30	988.129701936	 98.000	 1.359
1655861260.6525760	9.60900	993.200000000	-9.02	980.923200323	988.925000000	-2.30	988.129701936	 98.000	 1.115
1655861262.8596389	9.60300	993.200000000	-9.02	980.923200323	988.775000000	-2.30	987.979822567	 98.000	 -1.111
1655861264.0607860	9.59700	993.200000000	-9.02	980.923200323	988.925000000	-2.30	988.129701936	 98.000	 -0.994
1655861265.7569201	9.59100	993.200000000	-9.02	980.923200323	988.775000000	-2.30	987.979822567	 98.000	 -1.023
1655861266.9657040	9.58300	993.200000000	-9.02	980.923200323	988.775000000	-2.30	987.979822567	 98.000	 1.248
1655861268.6581950	9.57800	993.045000000	-9.02	980.770116255	988.620000000	-2.29	987.833227863	 98.000	 -0.764
1655861269.8609910	9.57000	993.045000000	-9.02	980.770116255	988.775000000	-2.30	987.979822567	 98.000	 0.563
1655861271.5594699	9.56400	993.045000000	-9.02	980.770116255	988.620000000	-2.29	987.829092957	 98.000	 1.149
1655861272.7646229	9.55700	992.895000000	-9.02	980.621970383	988.620000000	-2.29	987.829092957	 98.000	 0.236
1655861274.4720681	9.55200	992.895000000	-9.01	980.638262654	988.470000000	-2.29	987.679212959	 98.000	 -1.244
1655861275.6615441	9.54000	992.740000000	-9.01	980.485176043	988.470000000	-2.30	987.675067849	 98.000	 -0.382
1655861277.8596871	9.53500	992.740000000	-9.01	980.485176043	988.315000000	-2.30	987.520192501	 98.000	 1.160
1655861279.0574970	9.52700	992.740000000	-9.02	980.468886315	988.315000000	-2.30	987.520192501	 98.000	 -0.748
1655861280.7613161	9.52300	992.740000000	-9.01	980.485176043	988.315000000	-2.30	987.520192501	 98.000	 -0.911
1655861281.9667521	9.51400	992.590000000	-9.02	980.320740443	988.165000000	-2.30	987.370313131	 98.000	 0.438
1655861283.6622369	9.50800	992.590000000	-9.02	980.320740443	988.315000000	-2.29	987.524336960	 98.000	 -0.796
1655861284.8643849	9.49900	992.590000000	-9.02	980.320740443	988.165000000	-2.30	987.370313131	 98.000	 1.329
1655861286.5685000	9.49300	992.590000000	-9.02	980.320740443	988.165000000	-2.29	987.374456962	 98.000	 0.578
1655861287.7613230	9.48400	992.435000000	-9.01	980.183941099	988.165000000	-2.29	987.374456962	 98.000	 0.197
1655861289.4657781	9.47900	992.435000000	-9.02	980.167656375	988.165000000	-2.30	987.370313131	 98.000	 0.781
1655861290.6735630	9.46900	992.435000000	-9.02	980.167656375	988.010000000	-2.29	987.219580964	 98.000	 -0.556
1655861292.8640871	9.46400	992.435000000	-9.01	980.183941099	988.010000000	-2.29	987.219580964	 98.000	 0.000
1655861294.0668819	9.45600	992.435000000	-9.02	980.167656375	987.860000000	-2.30	987.065558414	 98.000	 -0.977
1655861295.7693460	9.45100	992.285000000	-9.01	980.035792765	988.010000000	-2.30	987.215437783	 98.000	 -0.948
1655861296.9767759	9.44200	992.285000000	-9.01	980.035792765	987.860000000	-2.30	987.065558414	 98.000	 -1.160
1655861298.6716239	9.43700	992.285000000	-9.02	980.019510503	987.860000000	-2.30	987.065558414	 98.000	 0.323
1655861299.8720641	9.42900	992.130000000	-9.02	979.866426436	987.705000000	-2.29	986.914824967	 98.000	 0.997
1655861301.5725391	9.42300	992.130000000	-9.02	979.866426436	987.860000000	-2.30	987.061405038	 98.000	 -0.019
1655861302.7667191	9.41400	992.130000000	-9.02	979.866426436	987.860000000	-2.30	987.061405038	 98.000	 -0.641
1655861304.4801531	9.40700	992.130000000	-9.02	979.866426436	987.705000000	-2.30	986.910683065	 98.000	 -0.822
1655861305.6709781	9.40000	991.980000000	-9.02	979.718280564	987.555000000	-2.30	986.756651602	 98.000	 -0.635
1655861307.3750839	9.39400	991.825000000	-9.02	979.565196496	987.400000000	-2.29	986.610068971	 98.000	 -0.076
1655861308.5718989	9.38300	991.825000000	-9.01	979.581471210	987.555000000	-2.30	986.760803696	 98.000	 1.492
1655861310.7740321	9.37800	991.825000000	-9.01	979.581471210	987.400000000	-2.30	986.605928348	 98.000	 1.122
1655861311.9801800	9.36900	991.825000000	-9.01	979.581471210	987.400000000	-2.30	986.605928348	 98.000	 -1.148
1655861313.6806650	9.36400	991.825000000	-9.01	979.581471210	987.400000000	-2.30	986.605928348	 98.000	 0.085
1655861314.8830860	9.35300	991.675000000	-9.02	979.417050624	987.400000000	-2.30	986.605928348	 98.000	 0.929
1655861316.5839059	9.34700	991.675000000	-9.02	979.417050624	987.095000000	-2.29	986.305312974	 98.000	 -1.057
1655861317.7737520	9.33800	991.520000000	-9.02	979.263966556	987.250000000	-2.30	986.456048979	 98.000	 -0.904
1655861319.4798450	9.33300	991.675000000	-9.02	979.417050624	987.250000000	-2.30	986.456048979	 98.000	 -1.237
1655861320.6770070	9.32200	991.520000000	-9.02	979.263966556	987.250000000	-2.30	986.456048979	 98.000	 -0.313
1655861322.8748021	9.31500	991.520000000	-9.02	979.263966556	987.095000000	-2.30	986.297023471	 98.000	 0.838
1655861324.0729771	9.30400	991.370000000	-9.01	979.132087932	987.095000000	-2.30	986.301173630	 98.000	 1.216
1655861325.7720871	9.29900	991.370000000	-9.01	979.132087932	987.095000000	-2.30	986.301173630	 98.000	 1.422
1655861326.9792190	9.29000	991.370000000	-9.01	979.132087932	986.790000000	-2.29	986.000556977	 98.000	 1.308
1655861328.6757059	9.28300	991.370000000	-9.01	979.132087932	986.945000000	-2.30	986.151294261	 98.000	 -0.480
1655861329.8751631	9.27400	991.215000000	-9.01	978.979001321	986.945000000	-2.30	986.151294261	 98.000	 1.322
1655861331.5779879	9.26800	991.215000000	-9.01	978.979001321	986.790000000	-2.30	985.996418913	 98.000	 -0.506
1655861332.7794280	9.25900	991.215000000	-9.02	978.962736617	986.640000000	-2.29	985.850676979	 98.000	 0.965
1655861334.4798970	9.25100	991.215000000	-9.01	978.979001321	986.640000000	-2.29	985.850676979	 98.000	 0.877
1655861335.6797020	9.24300	991.065000000	-9.01	978.830852988	986.640000000	-2.29	985.850676979	 98.000	 -0.393
1655861337.3751850	9.23600	991.065000000	-9.01	978.830852988	986.640000000	-2.30	985.846539543	 98.000	 -0.934
1655861338.5789790	9.22400	990.910000000	-9.01	978.677766377	986.640000000	-2.30	985.846539543	 98.000	 -0.272
1655861340.7784829	9.21700	990.910000000	-9.01	978.677766377	986.485000000	-2.29	985.695800981	 98.000	 -1.210
1655861341.9839120	9.20900	990.910000000	-9.01	978.677766377	986.485000000	-2.30	985.691664195	 98.000	 -1.034
1655861343.6793971	9.20200	990.760000000	-9.01	978.529618044	986.335000000	-2.29	985.545920982	 98.000	 1.332
1655861344.8805521	9.19100	990.760000000	-9.01	978.529618044	986.335000000	-2.29	985.545920982	 98.000	 -1.151
1655861346.5846570	9.18400	990.760000000	-9.01	978.529618044	986.335000000	-2.29	985.545920982	 98.000	 -1.124
1655861347.7818220	9.17700	990.605000000	-9.02	978.360276737	986.335000000	-2.30	985.541784826	 98.000	 -0.715
1655861349.5022521	9.17100	990.605000000	-9.02	978.360276737	986.180000000	-2.29	985.391044984	 98.000	 0.735
1655861350.6917191	9.16200	990.605000000	-9.01	978.376531432	986.180000000	-2.29	985.391044984	 98.000	 1.069
1655861352.3905520	9.15300	990.605000000	-9.01	978.376531432	986.180000000	-2.29	985.391044984	 98.000	 -0.961
1655861353.5830171	9.14200	990.605000000	-9.01	978.376531432	986.030000000	-2.29	985.241164986	 98.000	 -0.059
1655861355.7881441	9.13700	990.455000000	-9.01	978.228383099	986.030000000	-2.29	985.241164986	 98.000	 -0.164
1655861356.9952760	9.12700	990.455000000	-9.01	978.228383099	986.030000000	-2.29	985.241164986	 98.000	 0.986
1655861358.6897631	9.12200	990.455000000	-9.01	978.228383099	986.030000000	-2.29	985.241164986	 98.000	 -1.332
1655861359.8842371	9.11300	990.300000000	-9.01	978.075296488	985.875000000	-2.30	985.082154760	 98.000	 -1.188
1655861361.5857050	9.10800	990.300000000	-9.01	978.075296488	985.875000000	-2.30	985.082154760	 98.000	 -1.130
1655861362.7865081	9.09800	990.150000000	-9.01	977.927148155	985.875000000	-2.30	985.082154760	 98.000	 1.360
1655861364.4929609	9.09300	990.150000000	-9.01	977.927148155	985.875000000	-2.29	985.086288988	 98.000	 -0.978
1655861365.6897750	9.08300	990.150000000	-9.02	977.910900926	985.725000000	-2.29	984.936408989	 98.000	 -0.877
1655861367.8949001	9.07700	989.995000000	-9.01	977.774061544	985.725000000	-2.30	984.932275391	 98.000	 0.226
1655861369.0937099	9.06800	989.995000000	-9.02	977.757816858	985.570000000	-2.29	984.781532991	 98.000	 -1.046
1655861370.7885549	9.06200	989.995000000	-9.01	977.774061544	985.570000000	-2.29	984.781532991	 98.000	 0.016
1655861371.9963300	9.05400	989.995000000	-9.02	977.757816858	985.570000000	-2.30	984.777400042	 98.000	 0.412
1655861373.6908181	9.04800	989.995000000	-9.01	977.774061544	985.570000000	-2.30	984.777400042	 98.000	 0.128
1655861374.8836310	9.03900	989.840000000	-9.01	977.620974933	985.415000000	-2.29	984.626656993	 98.000	 0.945
1655861376.5857530	9.03300	989.840000000	-9.01	977.620974933	985.415000000	-2.30	984.622524694	 98.000	 -0.586
1655861377.7855580	9.02400	989.840000000	-9.01	977.620974933	985.415000000	-2.30	984.622524694	 98.000	 0.050
1655861379.4920111	9.01900	989.690000000	-9.01	977.472826599	985.415000000	-2.30	984.622524694	 98.000	 1.516
1655861380.6848350	9.01200	989.690000000	-9.01	977.472826599	985.265000000	-2.30	984.472645325	 98.000	 1.582
1655861382.3902929	9.00600	989.690000000	-9.01	977.472826599	985.265000000	-2.29	984.476776994	 98.000	 1.448
1655861383.5884459	8.99600	989.690000000	-9.01	977.472826599	985.265000000	-2.29	984.476776994	 98.000	 -0.414
1655861385.7882421	8.98900	989.535000000	-9.01	977.319739988	985.110000000	-2.29	984.321900996	 98.000	 -0.250
1655861386.9930329	8.97900	989.535000000	-9.01	977.319739988	985.110000000	-2.29	984.326021222	 98.000	 -0.963
1655861388.6964970	8.97400	989.535000000	-9.01	977.319739988	984.960000000	-2.29	984.172020998	 98.000	 -1.203
1655861389.8893211	8.96500	989.385000000	-9.01	977.171591655	984.960000000	-2.29	984.172020998	 98.000	 0.597
1655861391.5941401	8.96100	989.385000000	-9.01	977.171591655	984.960000000	-2.29	984.172020998	 98.000	 -0.908
1655861392.7919509	8.95200	989.385000000	-9.01	977.171591655	984.960000000	-2.29	984.172020998	 98.000	 0.463
1655861394.4974000	8.94700	989.385000000	-9.01	977.171591655	984.805000000	-2.29	984.017145000	 98.000	 0.052
1655861395.6958549	8.93700	989.230000000	-9.01	977.034726463	984.805000000	-2.29	984.017145000	 98.000	 -1.234
1655861397.3933339	8.93200	989.080000000	-9.01	976.870356711	984.655000000	-2.29	983.871383324	 98.000	 -1.013
1655861398.5914750	8.92100	989.080000000	-9.01	976.870356711	984.655000000	-2.29	983.867265001	 98.000	 0.461
1655861400.7936330	8.91500	989.080000000	-9.01	976.870356711	984.655000000	-2.29	983.867265001	 98.000	 0.385
1655861401.9954300	8.90600	988.925000000	-9.01	976.717270099	984.655000000	-2.29	983.867265001	 98.000	 1.518
1655861403.6939139	8.89900	988.925000000	-9.01	976.717270099	984.655000000	-2.29	983.871383324	 98.000	 0.563
1655861404.8967230	8.89000	988.925000000	-9.01	976.717270099	984.500000000	-2.29	983.712389003	 98.000	 -1.119
1655861406.5951860	8.88600	988.925000000	-9.01	976.717270099	984.500000000	-2.30	983.708260541	 98.000	 1.244
1655861407.7976229	8.87700	988.925000000	-9.01	976.717270099	984.350000000	-2.29	983.566626051	 98.000	 -0.854
1655861409.5030811	8.87200	988.925000000	-9.01	976.717270099	984.350000000	-2.29	983.562509005	 98.000	 -1.055
1655861410.7038820	8.86100	988.775000000	-9.01	976.569121766	984.350000000	-2.29	983.562509005	 98.000	 0.195
1655861412.9013851	8.85400	988.775000000	-9.01	976.569121766	984.350000000	-2.29	983.562509005	 98.000	 0.347
1655861414.1008351	8.84600	988.775000000	-9.01	976.569121766	984.195000000	-2.29	983.407633006	 98.000	 -1.071
1655861415.8046710	8.84000	988.620000000	-9.01	976.432246571	984.195000000	-2.29	983.407633006	 98.000	 -0.971
1655861417.0001130	8.83100	988.620000000	-9.01	976.416035155	984.195000000	-2.29	983.407633006	 98.000	 1.302
1655861418.7019401	8.82300	988.470000000	-9.01	976.267886822	984.195000000	-2.29	983.407633006	 98.000	 -1.092
1655861419.9033790	8.81600	988.470000000	-9.01	976.267886822	984.195000000	-2.29	983.407633006	 98.000	 -0.771
1655861421.6081989	8.81200	988.470000000	-9.01	976.267886822	984.045000000	-2.29	983.257753008	 98.000	 0.009
1655861422.8066471	8.80100	988.315000000	-9.01	976.114800211	984.045000000	-2.29	983.257753008	 98.000	 -0.271
1655861424.5134521	8.79600	988.315000000	-9.01	976.114800211	984.045000000	-2.29	983.257753008	 98.000	 0.589
1655861425.7162530	8.78600	988.315000000	-9.01	976.114800211	983.890000000	-2.29	983.102877010	 98.000	 1.017
1655861427.9173810	8.78000	988.165000000	-9.01	975.982855832	983.890000000	-2.29	983.102877010	 98.000	 0.778
1655861429.1082170	8.77000	988.165000000	-9.01	975.966651877	983.740000000	-2.29	982.952997011	 98.000	 0.100
1655861430.8047161	8.76200	988.165000000	-9.01	975.982855832	983.740000000	-2.29	982.952997011	 98.000	 0.156
1655861432.0041499	8.75600	988.165000000	-9.01	975.982855832	983.740000000	-2.29	982.952997011	 98.000	 -1.204
1655861433.7009840	8.75000	988.010000000	-9.01	975.813565266	983.740000000	-2.30	982.948871737	 98.000	 -0.328
1655861434.9024341	8.74100	988.010000000	-9.01	975.813565266	983.585000000	-2.30	982.793996389	 98.000	 1.093
1655861436.5999091	8.73500	988.010000000	-9.01	975.813565266	983.585000000	-2.29	982.798121013	 98.000	 -0.110
1655861437.8030629	8.72600	987.860000000	-9.01	975.665416933	983.585000000	-2.29	982.798121013	 98.000	 1.173
1655861439.5121491	8.72000	987.860000000	-9.01	975.665416933	983.585000000	-2.29	982.798121013	 98.000	 -0.108
1655861440.7009890	8.71100	987.860000000	-9.01	975.665416933	983.435000000	-2.30	982.644117019	 98.000	 1.029
1655861442.9004869	8.70500	987.860000000	-9.01	975.681615886	983.435000000	-2.30	982.644117019	 98.000	 -1.138
1655861444.1062760	8.69400	987.705000000	-9.01	975.512330322	983.280000000	-2.29	982.493365017	 98.000	 1.488
1655861445.8073871	8.68800	987.705000000	-9.01	975.512330322	983.280000000	-2.29	982.493365017	 98.000	 1.252
1655861447.0042000	8.68100	987.705000000	-9.01	975.528526734	983.280000000	-2.28	982.501579385	 98.000	 1.371
1655861448.7116480	8.67500	987.705000000	-9.01	975.528526734	983.280000000	-2.29	982.493365017	 98.000	 1.522
1655861449.9058249	8.66500	987.705000000	-9.01	975.528526734	983.280000000	-2.29	982.493365017	 98.000	 -1.036
1655861451.6072929	8.65700	987.555000000	-9.01	975.364181989	983.130000000	-2.29	982.343485018	 98.000	 -0.778
1655861452.8071020	8.65000	987.555000000	-9.01	975.364181989	983.130000000	-2.29	982.343485018	 98.000	 0.302
1655861454.5095630	8.64500	987.400000000	-9.01	975.211095377	983.130000000	-2.29	982.347596962	 98.000	 -1.005
1655861455.7103660	8.63600	987.400000000	-9.01	975.211095377	983.130000000	-2.29	982.343485018	 98.000	 -1.101
1655861457.4084859	8.62800	987.400000000	-9.01	975.211095377	982.825000000	-2.30	982.034607584	 98.000	 1.072
1655861458.6082880	8.61800	987.250000000	-9.01	975.062947044	982.825000000	-2.29	982.038729022	 98.000	 -0.460
1655861460.8094289	8.61100	987.250000000	-9.01	975.062947044	982.975000000	-2.29	982.188609020	 98.000	 -0.828
1655861462.0142231	8.60600	987.250000000	-9.01	975.079135995	982.825000000	-2.29	982.042839690	 98.000	 -1.110
1655861463.7200279	8.59900	987.250000000	-9.01	975.079135995	982.825000000	-2.29	982.038729022	 98.000	 -0.091
1655861464.9144950	8.58800	987.250000000	-9.01	975.079135995	982.825000000	-2.29	982.042839690	 98.000	 0.208
1655861466.6203060	8.58200	987.095000000	-9.01	974.926046842	982.670000000	-2.29	981.883853023	 98.000	 -0.796
1655861467.8181150	8.57500	987.095000000	-9.01	974.909860433	982.670000000	-2.29	981.887963043	 98.000	 0.882
1655861469.5215790	8.56800	987.095000000	-9.01	974.909860433	982.670000000	-2.29	981.887963043	 98.000	 1.359
1655861470.7223880	8.55700	987.095000000	-9.01	974.909860433	982.670000000	-2.29	981.887963043	 98.000	 -0.085
1655861472.9235270	8.55200	986.945000000	-9.01	974.761712100	982.670000000	-2.29	981.887963043	 98.000	 -0.602
1655861474.1189799	8.54300	986.945000000	-9.01	974.761712100	982.520000000	-2.29	981.738082418	 98.000	 -0.324
1655861475.8174591	8.53600	986.945000000	-9.01	974.777896049	982.520000000	-2.29	981.733973025	 98.000	 -0.191
1655861477.0275850	8.52900	986.945000000	-9.01	974.777896049	982.520000000	-2.29	981.738082418	 98.000	 0.621
1655861478.7187259	8.52300	986.790000000	-9.01	974.624806896	982.365000000	-2.29	981.579097027	 98.000	 -0.272
1655861479.9225221	8.51300	986.790000000	-9.01	974.624806896	982.365000000	-2.29	981.583205771	 98.000	 1.266
1655861481.6239910	8.50500	986.790000000	-9.01	974.624806896	982.215000000	-2.29	981.429217028	 98.000	 1.073
1655861482.8151741	8.49600	986.790000000	-9.01	974.624806896	982.365000000	-2.29	981.583205771	 98.000	 -1.200
1655861485.0249331	8.49000	986.640000000	-9.01	974.476656103	982.215000000	-2.29	981.433325146	 98.000	 -1.200
1655861486.2556520	8.48300	986.640000000	-9.01	974.476656103	982.215000000	-2.29	981.433325146	 98.000	 0.855
1655861487.4474790	8.47700	986.485000000	-9.01	974.323566950	982.215000000	-2.29	981.429217028	 98.000	 -0.907
1655861488.6366601	8.46700	986.485000000	-9.01	974.323566950	982.060000000	-2.29	981.274341030	 98.000	 -0.995
1655861490.8318210	8.46100	986.485000000	-9.01	974.323566950	982.060000000	-2.29	981.274341030	 98.000	 -0.958
1655861492.0212979	8.45200	986.335000000	-9.01	974.159242211	981.910000000	-2.29	981.128567873	 98.000	 0.018
1655861493.7211330	8.44500	986.335000000	-9.01	974.159242211	982.060000000	-2.29	981.278448499	 98.000	 -1.088
1655861494.9189360	8.43600	986.335000000	-9.01	974.159242211	981.910000000	-2.29	981.124461032	 98.000	 -0.766
1655861496.6204040	8.42900	986.335000000	-9.01	974.159242211	981.910000000	-2.29	981.124461032	 98.000	 1.139
1655861497.8182030	8.42300	986.180000000	-9.01	974.022327005	981.910000000	-2.29	981.124461032	 98.000	 1.264
1655861499.5246730	8.41900	986.180000000	-9.01	974.022327005	981.755000000	-2.29	980.969585034	 98.000	 0.881
1655861500.7201300	8.40900	986.180000000	-9.01	974.022327005	981.755000000	-2.29	980.973691227	 98.000	 -0.872
1655861502.4215961	8.40200	986.180000000	-9.01	974.022327005	981.755000000	-2.29	980.969585034	 98.000	 1.137
1655861503.6223991	8.39000	986.030000000	-9.01	973.874176212	981.755000000	-2.29	980.969585034	 98.000	 -1.171
1655861505.8228941	8.38400	986.030000000	-9.01	973.874176212	981.605000000	-2.29	980.823810601	 98.000	 1.554
1655861507.0273290	8.37300	986.030000000	-9.01	973.874176212	981.605000000	-2.29	980.819705035	 98.000	 0.882
1655861508.7238121	8.36900	986.030000000	-9.01	973.874176212	981.605000000	-2.29	980.819705035	 98.000	 0.718
1655861509.9229791	8.36000	985.875000000	-9.01	973.704920656	981.450000000	-2.29	980.664829037	 98.000	 -0.949
1655861511.6224549	8.35400	985.875000000	-9.01	973.721087059	981.450000000	-2.29	980.664829037	 98.000	 0.967
1655861512.8308721	8.34600	985.875000000	-9.01	973.721087059	981.450000000	-2.29	980.664829037	 98.000	 0.942
1655861514.5283520	8.34000	985.875000000	-9.01	973.721087059	981.450000000	-2.29	980.668933954	 98.000	 1.222
1655861515.7255340	8.32700	985.875000000	-9.01	973.721087059	981.295000000	-2.30	980.505838017	 98.000	 0.644
1655861517.9282961	8.32200	985.875000000	-9.01	973.721087059	981.295000000	-2.29	980.509953039	 98.000	 -0.084
1655861519.1340849	8.31200	985.570000000	-9.01	973.419847113	981.295000000	-2.29	980.509953039	 98.000	 1.141
1655861520.8319299	8.30500	985.570000000	-9.01	973.419847113	981.145000000	-2.29	980.360073040	 98.000	 -0.542
1655861522.0367100	8.29700	985.570000000	-9.01	973.419847113	981.295000000	-2.29	980.514057308	 98.000	 1.522
1655861523.7371790	8.29100	985.570000000	-9.01	973.419847113	980.990000000	-2.29	980.209300036	 98.000	 1.112
1655861524.9290071	8.28100	985.570000000	-9.01	973.419847113	981.145000000	-2.29	980.364176682	 98.000	 -0.949
1655861526.6311181	8.27400	985.415000000	-9.01	973.250599100	981.145000000	-2.29	980.364176682	 98.000	 1.106
1655861527.8322771	8.26600	985.415000000	-9.01	973.266757960	980.990000000	-2.29	980.209300036	 98.000	 -0.220
1655861529.5357389	8.25800	985.415000000	-9.01	973.266757960	980.990000000	-2.29	980.209300036	 98.000	 0.294
1655861530.7351890	8.24700	985.265000000	-9.01	973.118607167	980.840000000	-2.29	980.059419410	 98.000	 -0.711
1655861532.9383180	8.23900	985.265000000	-9.01	973.102450767	980.840000000	-2.29	980.055317044	 98.000	 0.633
1655861534.1341331	8.23100	985.265000000	-9.01	973.118607167	980.840000000	-2.29	980.059419410	 98.000	 -0.676
1655861535.8319659	8.22200	985.265000000	-9.01	973.118607167	980.685000000	-2.29	979.904542763	 98.000	 -0.852
1655861537.0394001	8.21200	985.265000000	-9.01	973.118607167	980.685000000	-2.29	979.900441046	 98.000	 1.114
1655861538.7408659	8.20600	985.110000000	-9.01	972.965518015	980.685000000	-2.29	979.904542763	 98.000	 -1.294
1655861539.9326921	8.19600	985.110000000	-9.01	972.965518015	980.685000000	-2.29	979.904542763	 98.000	 1.367
1655861541.6355140	8.19100	985.110000000	-9.01	972.965518015	980.685000000	-2.29	979.900441046	 98.000	 1.016
1655861542.8319681	8.18100	984.960000000	-9.01	972.817367222	980.685000000	-2.29	979.904542763	 98.000	 -1.118
1655861544.5354300	8.17300	984.960000000	-9.01	972.817367222	980.535000000	-2.29	979.750561047	 98.000	 1.246
1655861545.7286100	8.16600	984.960000000	-9.01	972.817367222	980.535000000	-2.29	979.754662138	 98.000	 1.219
1655861547.4320710	8.15600	984.805000000	-9.01	972.664278069	980.535000000	-2.29	979.754662138	 98.000	 1.059
1655861548.6318841	8.14500	984.805000000	-9.01	972.664278069	980.380000000	-2.29	979.599785491	 98.000	 0.725
1655861550.8350060	8.13800	984.805000000	-9.01	972.664278069	980.380000000	-2.29	979.599785491	 98.000	 -0.903
1655861552.0394411	8.12900	984.655000000	-9.01	972.516127276	980.380000000	-2.29	979.599785491	 98.000	 -0.481
1655861553.7319360	8.12200	984.655000000	-9.01	972.516127276	980.230000000	-2.29	979.449904865	 98.000	 1.508
1655861554.9361110	8.11100	984.655000000	-9.01	972.516127276	980.230000000	-2.29	979.449904865	 98.000	 1.005
1655861556.6332071	8.10600	984.655000000	-9.01	972.516127276	980.075000000	-2.29	979.295028219	 98.000	 0.604
1655861557.8333721	8.09600	984.500000000	-9.01	972.363038123	980.075000000	-2.29	979.295028219	 98.000	 1.239
1655861559.5388401	8.09100	984.500000000	-9.01	972.363038123	980.075000000	-2.29	979.290929052	 98.000	 -0.094
1655861560.7336421	8.08200	984.500000000	-9.01	972.363038123	980.075000000	-2.29	979.290929052	 98.000	 0.497
1655861562.4397430	8.07800	984.350000000	-9.01	972.198745934	979.925000000	-2.29	979.145147593	 98.000	 0.362
1655861563.6389041	8.06700	984.350000000	-9.01	972.214887330	979.925000000	-2.29	979.141049054	 98.000	 -0.415
1655861565.8426800	8.06000	984.350000000	-9.01	972.214887330	979.925000000	-2.29	979.145147593	 98.000	 0.218
1655861567.0438321	8.05200	984.350000000	-9.01	972.214887330	979.925000000	-2.29	979.145147593	 98.000	 -0.999
1655861568.7359700	8.04700	984.350000000	-9.01	972.214887330	979.770000000	-2.29	978.990270947	 98.000	 -0.182
1655861569.9457510	8.03900	984.195000000	-9.01	972.061798177	979.770000000	-2.29	978.990270947	 98.000	 0.936
1655861571.6455791	8.03100	984.195000000	-9.01	972.061798177	979.770000000	-2.28	978.994358102	 98.000	 -0.958
1655861572.8460269	8.02300	984.195000000	-9.01	972.061798177	979.620000000	-2.29	978.840390321	 98.000	 -0.226
1655861574.5418570	8.01800	984.195000000	-9.01	972.061798177	979.620000000	-2.29	978.840390321	 98.000	 -0.975
1655861575.7413170	8.00600	984.045000000	-9.01	971.913647384	979.620000000	-2.29	978.840390321	 98.000	 -0.686
1655861577.9344740	8.00000	984.045000000	-9.01	971.913647384	979.620000000	-2.29	978.840390321	 98.000	 1.082
1655861579.1362729	7.99100	984.045000000	-9.01	971.913647384	979.465000000	-2.29	978.685513674	 98.000	 0.880
1655861580.8401060	7.98600	983.890000000	-9.01	971.760558231	979.465000000	-2.29	978.685513674	 98.000	 -1.057
1655861582.0418739	7.97900	983.890000000	-9.01	971.760558231	979.465000000	-2.29	978.685513674	 98.000	 -1.192
1655861583.7381480	7.97200	983.740000000	-9.01	971.612407438	979.465000000	-2.28	978.689599557	 98.000	 1.230
1655861584.9401591	7.96300	983.740000000	-9.01	971.612407438	979.315000000	-2.29	978.531537061	 98.000	 -0.950
1655861586.6416440	7.95900	983.740000000	-9.01	971.612407438	979.465000000	-2.29	978.681417059	 98.000	 0.202
1655861587.8404591	7.94800	983.585000000	-9.01	971.459318286	979.315000000	-2.29	978.535633049	 98.000	 -0.994
1655861589.5449109	7.94200	983.585000000	-9.01	971.459318286	979.160000000	-2.29	978.380756402	 98.000	 1.185
1655861590.7373741	7.93300	983.585000000	-9.00	971.475436484	979.160000000	-2.29	978.380756402	 98.000	 -0.149
1655861592.4398401	7.92600	983.435000000	-9.00	971.327283233	979.160000000	-2.29	978.380756402	 98.000	 0.454
1655861593.6419990	7.91600	983.435000000	-9.00	971.327283233	979.010000000	-2.29	978.230875776	 98.000	 -0.180
1655861595.8397830	7.91100	983.435000000	-9.01	971.311167493	979.010000000	-2.29	978.230875776	 98.000	 1.259
1655861597.0455699	7.90300	983.435000000	-9.01	971.311167493	979.010000000	-2.28	978.234959761	 98.000	 1.307
1655861598.7414100	7.89600	983.280000000	-9.01	971.158078340	979.010000000	-2.29	978.230875776	 98.000	 -0.231
1655861599.9448509	7.88600	983.280000000	-9.01	971.158078340	979.010000000	-2.29	978.230875776	 98.000	 1.093
1655861601.6496689	7.88300	983.280000000	-9.01	971.158078340	978.855000000	-2.29	978.075999130	 98.000	 0.184
1655861602.8441291	7.87500	983.130000000	-9.01	971.009927547	978.855000000	-2.29	978.075999130	 98.000	 1.547
1655861604.5529389	7.86700	983.130000000	-9.01	971.009927547	978.855000000	-2.29	978.075999130	 98.000	 0.181
1655861605.7563760	7.85600	983.130000000	-9.01	971.009927547	978.705000000	-2.29	977.926118504	 98.000	 -0.722
1655861607.9528821	7.84900	983.130000000	-9.00	971.026038289	978.705000000	-2.29	977.926118504	 98.000	 -0.541
1655861609.1506889	7.84000	982.975000000	-9.01	970.856838394	978.705000000	-2.29	977.926118504	 98.000	 -1.031
1655861610.8501620	7.83600	983.130000000	-9.00	971.026038289	978.705000000	-2.29	977.926118504	 98.000	 0.301
1655861612.0516050	7.82500	982.975000000	-9.00	970.872946597	978.705000000	-2.29	977.926118504	 98.000	 -0.995
1655861613.7464509	7.82100	982.825000000	-9.01	970.708687601	978.550000000	-2.29	977.771241858	 98.000	 0.772
1655861614.9452610	7.81200	982.825000000	-9.01	970.708687601	978.400000000	-2.29	977.621361232	 98.000	 -0.889
1655861616.6483619	7.80600	982.825000000	-9.01	970.708687601	978.400000000	-2.29	977.621361232	 98.000	 -0.511
1655861617.8475239	7.79900	982.825000000	-9.00	970.724793345	978.400000000	-2.28	977.625442672	 98.000	 -0.984
1655861619.5589700	7.79300	982.670000000	-9.00	970.571701653	978.400000000	-2.29	977.621361232	 98.000	 -1.148
1655861620.7507880	7.78000	982.670000000	-9.01	970.555598448	978.245000000	-2.29	977.466484585	 98.000	 -1.126
1655861622.9479439	7.77700	982.670000000	-9.00	970.571701653	978.245000000	-2.29	977.466484585	 98.000	 1.515
1655861624.1487341	7.76600	982.520000000	-9.00	970.423548402	978.245000000	-2.29	977.466484585	 98.000	 1.275
1655861625.8472209	7.75900	982.520000000	-9.00	970.423548402	978.245000000	-2.29	977.466484585	 98.000	 1.464
1655861627.0506561	7.75000	982.520000000	-9.00	970.423548402	978.245000000	-2.28	977.470565379	 98.000	 0.901
1655861628.7501280	7.74400	982.520000000	-9.00	970.423548402	978.095000000	-2.29	977.316603960	 98.000	 1.448
1655861629.9529231	7.73200	982.365000000	-9.00	970.270456709	978.095000000	-2.29	977.312513075	 98.000	 0.448
1655861631.6497600	7.73000	982.365000000	-9.01	970.254358502	978.095000000	-2.29	977.316603960	 98.000	 -1.204
1655861632.8512070	7.72300	982.365000000	-9.00	970.270456709	977.940000000	-2.29	977.161727313	 98.000	 0.591
1655861634.5536730	7.71700	982.365000000	-9.01	970.254358502	977.940000000	-2.29	977.157637076	 98.000	 1.609
1655861635.7598341	7.70500	982.365000000	-9.01	970.254358502	977.940000000	-2.29	977.161727313	 98.000	 -1.104
1655861637.4539449	7.70000	982.215000000	-9.01	970.106207709	977.940000000	-2.29	977.161727313	 98.000	 1.075
1655861638.6537509	7.68800	982.215000000	-9.00	970.122303458	977.790000000	-2.28	977.015925583	 98.000	 -1.051
1655861640.8512621	7.68500	982.215000000	-9.01	970.106207709	977.790000000	-2.29	977.011846687	 98.000	 0.825
1655861642.0610399	7.67500	982.215000000	-9.00	970.122303458	977.790000000	-2.29	977.011846687	 98.000	 1.212
1655861643.7704909	7.67100	982.060000000	-9.01	969.953118557	977.790000000	-2.29	977.011846687	 98.000	 0.411
1655861644.9583049	7.65900	982.060000000	-9.00	969.969211765	977.790000000	-2.29	977.011846687	 98.000	 -0.416
1655861646.6548030	7.65200	982.060000000	-9.00	969.969211765	977.635000000	-2.28	976.861048290	 98.000	 -0.757
1655861647.8526101	7.64500	981.910000000	-9.00	969.821058514	977.485000000	-2.29	976.707089415	 98.000	 -0.217
1655861649.5600610	7.64200	981.910000000	-9.00	969.821058514	977.485000000	-2.29	976.707089415	 98.000	 0.086
1655861650.7548740	7.63200	981.910000000	-9.00	969.821058514	977.485000000	-2.29	976.707089415	 98.000	 -0.904
1655861652.4543569	7.62200	981.755000000	-9.01	969.651878611	977.330000000	-2.29	976.552212769	 98.000	 1.490
1655861653.6551671	7.61200	981.755000000	-9.00	969.667966821	977.330000000	-2.28	976.556289745	 98.000	 1.249
1655861655.8539391	7.60800	981.755000000	-9.01	969.651878611	977.330000000	-2.28	976.556289745	 98.000	 0.556
1655861657.0560939	7.59800	981.605000000	-9.01	969.503727818	977.330000000	-2.29	976.552212769	 98.000	 -0.662
1655861658.7545741	7.59200	981.605000000	-9.00	969.519813570	977.330000000	-2.29	976.552212769	 98.000	 0.579
1655861659.9553690	7.58400	981.605000000	-9.00	969.519813570	977.180000000	-2.28	976.406408494	 98.000	 0.029
1655861661.6528461	7.57600	981.605000000	-9.00	969.519813570	977.180000000	-2.29	976.402332143	 98.000	 1.161
1655861662.8536479	7.56800	981.450000000	-9.00	969.366721877	977.180000000	-2.28	976.406408494	 98.000	 -0.397
1655861664.5547609	7.56300	981.450000000	-9.00	969.366721877	977.180000000	-2.28	976.406408494	 98.000	 0.005
1655861665.7579310	7.55300	981.450000000	-9.00	969.366721877	977.025000000	-2.28	976.251531200	 98.000	 -1.030
1655861667.9567001	7.54600	981.450000000	-9.00	969.366721877	977.025000000	-2.28	976.251531200	 98.000	 1.149
1655861669.1575029	7.53800	981.450000000	-9.00	969.366721877	977.025000000	-2.28	976.251531200	 98.000	 -1.197
1655861670.8589711	7.53300	981.295000000	-9.01	969.197549512	977.025000000	-2.29	976.243369086	 98.000	 1.217
1655861672.0681069	7.52200	981.295000000	-9.00	969.213630184	976.870000000	-2.29	976.092578850	 98.000	 0.007
1655861673.7602429	7.51400	981.295000000	-9.00	969.213630184	976.870000000	-2.28	976.096653907	 98.000	 -0.024
1655861674.9590499	7.50600	981.145000000	-9.00	969.065476933	976.870000000	-2.28	976.096653907	 98.000	 -1.112
1655861676.6588769	7.50200	981.145000000	-9.00	969.065476933	976.870000000	-2.28	976.096653907	 98.000	 0.739
1655861677.8583291	7.49400	981.145000000	-9.00	969.065476933	976.720000000	-2.28	975.946772656	 98.000	 0.987
1655861679.5597970	7.48700	980.990000000	-9.00	968.912385240	976.720000000	-2.28	975.946772656	 98.000	 0.952
1655861680.7589581	7.47300	980.990000000	-9.00	968.912385240	976.565000000	-2.28	975.791895363	 98.000	 -1.008
1655861682.9600999	7.46800	980.990000000	-9.00	968.912385240	976.565000000	-2.28	975.791895363	 98.000	 1.391
1655861684.1625321	7.45900	980.840000000	-9.00	968.764231989	976.565000000	-2.29	975.787821578	 98.000	 -0.058
1655861685.8613651	7.45200	980.840000000	-9.00	968.764231989	976.565000000	-2.28	975.791895363	 98.000	 -0.945
1655861687.0578229	7.44700	980.840000000	-9.00	968.764231989	976.415000000	-2.29	975.637940952	 98.000	 0.912
1655861688.7602880	7.44200	980.840000000	-9.00	968.764231989	976.565000000	-2.28	975.791895363	 98.000	 -1.150
1655861689.9610889	7.43000	980.840000000	-9.00	968.764231989	976.415000000	-2.29	975.637940952	 98.000	 -0.875
1655861691.6569221	7.42300	980.840000000	-9.00	968.764231989	976.415000000	-2.29	975.637940952	 98.000	 1.137
1655861692.8613651	7.41500	980.685000000	-9.01	968.595069621	976.260000000	-2.29	975.483064305	 98.000	 -0.527
1655861694.5621879	7.40900	980.685000000	-9.01	968.595069621	976.260000000	-2.29	975.483064305	 98.000	 -1.014
1655861695.7586470	7.40100	980.535000000	-9.00	968.462987045	976.260000000	-2.29	975.483064305	 98.000	 1.364
1655861697.4611089	7.39300	980.685000000	-9.00	968.611140297	976.110000000	-2.27	975.341316758	 98.000	 -0.542
1655861698.6609139	7.38300	980.535000000	-9.00	968.462987045	976.260000000	-2.28	975.487136818	 98.000	 -1.125
1655861700.8693881	7.37600	980.535000000	-9.00	968.462987045	976.110000000	-2.29	975.333183680	 98.000	 0.667
1655861702.0681961	7.36800	980.535000000	-9.00	968.462987045	976.110000000	-2.28	975.337255567	 98.000	 -1.047
1655861703.7676821	7.36000	980.380000000	-9.00	968.309895353	975.955000000	-2.29	975.174225098	 98.000	 1.419
1655861704.9704771	7.35500	980.380000000	-9.00	968.309895353	976.110000000	-2.29	975.333183680	 98.000	 -0.397
1655861706.6729360	7.34800	980.380000000	-9.00	968.309895353	975.955000000	-2.29	975.178307033	 98.000	 1.003
1655861707.8703880	7.33700	980.380000000	-9.00	968.309895353	975.955000000	-2.27	975.186438820	 98.000	 -0.930
1655861709.5712149	7.33300	980.380000000	-9.00	968.309895353	975.955000000	-2.29	975.178307033	 98.000	 0.288
1655861710.7700241	7.32300	980.230000000	-9.00	968.161742102	975.955000000	-2.28	975.182378274	 98.000	 0.382
1655861712.4744771	7.31700	980.230000000	-9.00	968.161742102	975.805000000	-2.29	975.024345100	 98.000	 -0.727
1655861713.6709349	7.30800	980.075000000	-9.00	968.008650409	975.650000000	-2.28	974.877619729	 98.000	 1.427
1655861715.8720720	7.30100	980.075000000	-9.00	968.008650409	975.650000000	-2.29	974.873549761	 98.000	 -0.368
1655861717.0752211	7.29000	980.075000000	-9.00	968.008650409	975.650000000	-2.29	974.873549761	 98.000	 0.597
1655861718.7697129	7.28400	980.075000000	-9.00	968.008650409	975.650000000	-2.28	974.877619729	 98.000	 -0.357
1655861719.9711559	7.27700	979.925000000	-9.00	967.860497158	975.500000000	-2.28	974.727738478	 98.000	 0.588
1655861721.6736200	7.26900	979.925000000	-9.00	967.860497158	975.500000000	-2.28	974.727738478	 98.000	 -1.058
1655861722.8747711	7.26100	979.925000000	-9.00	967.860497158	975.500000000	-2.29	974.723669135	 98.000	 -0.933
1655861724.5788810	7.25500	979.925000000	-8.99	967.876544765	975.500000000	-2.28	974.727738478	 98.000	 0.335
1655861725.7736990	7.24400	979.770000000	-9.00	967.707405465	975.345000000	-2.29	974.568792488	 98.000	 1.211
1655861727.9808190	7.23500	979.770000000	-9.00	967.707405465	975.345000000	-2.27	974.576919193	 98.000	 -0.997
1655861729.1759901	7.22600	979.770000000	-9.01	967.691349783	975.345000000	-2.29	974.568792488	 98.000	 1.039
1655861730.8781061	7.22200	979.770000000	-9.00	967.707405465	975.345000000	-2.27	974.576919193	 98.000	 -0.014
1655861732.0802560	7.21000	979.620000000	-9.00	967.559252214	975.345000000	-2.28	974.572861184	 98.000	 1.320
1655861733.7737451	7.20300	979.620000000	-9.00	967.559252214	975.195000000	-2.28	974.422979933	 98.000	 1.272
1655861734.9771831	7.19300	979.620000000	-9.00	967.559252214	975.195000000	-2.29	974.418911863	 98.000	 0.044
1655861736.6810069	7.19000	979.620000000	-9.00	967.559252214	975.195000000	-2.28	974.422979933	 98.000	 -0.057
1655861737.8784549	7.17700	979.465000000	-9.00	967.406160521	975.040000000	-2.27	974.272159379	 98.000	 1.299
1655861739.5779290	7.17400	979.465000000	-9.00	967.406160521	975.040000000	-2.27	974.272159379	 98.000	 1.460
1655861740.7751000	7.16200	979.465000000	-8.99	967.422200596	975.040000000	-2.28	974.268102640	 98.000	 0.847
1655861742.4811940	7.15400	979.315000000	-9.00	967.258007270	975.040000000	-2.28	974.268102640	 98.000	 0.072
1655861743.6803579	7.14300	979.315000000	-9.00	967.258007270	974.890000000	-2.29	974.114154591	 98.000	 -0.967
1655861745.8775101	7.13700	979.160000000	-9.00	967.104915577	974.735000000	-2.28	973.963344095	 98.000	 -0.425
1655861747.0829380	7.12900	979.160000000	-9.00	967.104915577	974.735000000	-2.28	973.963344095	 98.000	 -0.889
1655861748.7797771	7.11400	979.160000000	-9.00	967.104915577	974.735000000	-2.28	973.963344095	 98.000	 0.421
1655861749.9785819	7.10600	979.160000000	-9.00	967.104915577	974.735000000	-2.28	973.963344095	 98.000	 0.638
1655861751.6800380	7.10400	979.010000000	-9.00	966.956762326	974.735000000	-2.28	973.963344095	 98.000	 1.533
1655861752.8775029	7.09000	979.010000000	-9.00	966.956762326	974.585000000	-2.28	973.813462844	 98.000	 1.048
1655861754.5849550	7.08500	979.010000000	-8.99	966.972794949	974.585000000	-2.28	973.813462844	 98.000	 1.516
1655861755.7807670	7.07900	979.010000000	-9.00	966.956762326	974.585000000	-2.28	973.813462844	 98.000	 0.023
1655861757.4822350	7.07200	978.855000000	-8.99	966.819700718	974.585000000	-2.28	973.813462844	 98.000	 -1.082
1655861758.6810420	7.05900	978.855000000	-9.00	966.803670633	974.430000000	-2.29	973.654520672	 98.000	 -1.174
1655861760.8775530	7.05400	978.855000000	-9.00	966.803670633	974.430000000	-2.28	973.658585551	 98.000	 0.257
1655861762.0869789	7.04500	978.705000000	-9.00	966.655517382	974.430000000	-2.27	973.662639752	 98.000	 1.416
1655861763.7858069	7.04000	978.705000000	-9.00	966.655517382	974.280000000	-2.28	973.508704299	 98.000	 1.290
1655861764.9842551	7.03200	978.705000000	-9.00	966.655517382	974.280000000	-2.28	973.508704299	 98.000	 1.104
1655861766.6870739	7.02600	978.705000000	-9.00	966.655517382	974.280000000	-2.28	973.508704299	 98.000	 -0.049
1655861767.8845310	7.01700	978.550000000	-9.00	966.502425689	974.280000000	-2.27	973.512757877	 98.000	 -1.270
1655861769.5883429	7.01000	978.550000000	-9.00	966.502425689	974.125000000	-2.28	973.353827006	 98.000	 -0.476
1655861770.7861590	7.00400	978.550000000	-9.00	966.502425689	974.125000000	-2.28	973.353827006	 98.000	 1.510
1655861772.9839461	6.99600	978.400000000	-9.00	966.354272438	974.125000000	-2.27	973.357879939	 98.000	 1.482
1655861774.1831181	6.98400	978.245000000	-8.99	966.217200841	973.975000000	-2.28	973.203945755	 98.000	 -0.487
1655861775.8835781	6.97900	978.245000000	-8.99	966.217200841	973.975000000	-2.28	973.203945755	 98.000	 -0.834
1655861777.0893819	6.97100	978.245000000	-8.99	966.217200841	973.975000000	-2.27	973.207998063	 98.000	 1.087
1655861778.7898369	6.96400	978.245000000	-8.99	966.217200841	973.975000000	-2.28	973.203945755	 98.000	 1.441
1655861779.9882901	6.95800	978.245000000	-8.99	966.217200841	973.820000000	-2.28	973.049068461	 98.000	 -0.568
1655861781.6901121	6.95400	978.095000000	-9.00	966.053027494	973.820000000	-2.27	973.053120125	 98.000	 0.179
1655861782.8889229	6.94100	978.095000000	-9.00	966.053027494	973.820000000	-2.28	973.049068461	 98.000	 -0.406
1655861784.5910289	6.93500	978.095000000	-9.00	966.053027494	973.670000000	-2.28	972.899187210	 98.000	 -1.116
1655861785.7891929	6.92700	977.940000000	-8.99	965.915950902	973.670000000	-2.28	972.899187210	 98.000	 -0.898
1655861787.9929690	6.92100	977.940000000	-8.99	965.915950902	973.670000000	-2.27	972.903238250	 98.000	 -0.913
1655861789.1921289	6.90900	977.940000000	-8.99	965.915950902	973.515000000	-2.28	972.744309917	 98.000	 -0.747
1655861790.8925910	6.90700	977.940000000	-8.99	965.915950902	973.515000000	-2.28	972.744309917	 98.000	 0.021
1655861792.0980310	6.89900	977.940000000	-8.99	965.915950902	973.515000000	-2.28	972.744309917	 98.000	 1.563
1655861793.7928820	6.89100	977.790000000	-8.99	965.767795195	973.515000000	-2.27	972.748360312	 98.000	 -0.362
1655861794.9943221	6.88000	977.790000000	-8.99	965.767795195	973.365000000	-2.27	972.598478436	 98.000	 -0.201
1655861796.6957860	6.87700	977.790000000	-8.99	965.767795195	973.365000000	-2.27	972.598478436	 98.000	 0.440
1655861797.8959489	6.86900	977.635000000	-9.00	965.598690858	973.365000000	-2.27	972.598478436	 98.000	 1.106
1655861799.5984049	6.85800	977.485000000	-9.00	965.450537607	973.210000000	-2.27	972.443600498	 98.000	 0.027
1655861800.7972071	6.84900	977.485000000	-9.00	965.450537607	973.210000000	-2.27	972.443600498	 98.000	 0.828
1655861803.0029860	6.84400	977.485000000	-9.00	965.450537607	973.210000000	-2.27	972.443600498	 98.000	 1.003
1655861804.1938119	6.83500	977.485000000	-9.00	965.450537607	973.210000000	-2.28	972.439551372	 98.000	 -1.222
1655861805.8962791	6.83100	977.485000000	-9.00	965.450537607	973.060000000	-2.27	972.293718622	 98.000	 0.611
1655861807.1004181	6.82400	977.330000000	-9.00	965.297445914	973.060000000	-2.28	972.289670121	 98.000	 -0.428
1655861808.7965550	6.81300	977.330000000	-8.99	965.313451025	972.905000000	-2.27	972.138840684	 98.000	 -0.804
1655861809.9993539	6.80600	977.330000000	-8.99	965.313451025	972.905000000	-2.27	972.138840684	 98.000	 1.220
1655861811.7018211	6.79900	977.180000000	-8.99	965.165295317	972.905000000	-2.27	972.138840684	 98.000	 0.825
1655861812.8976340	6.79000	977.180000000	-9.00	965.149292663	972.755000000	-2.28	971.984911576	 98.000	 0.861
1655861814.6044381	6.78600	977.180000000	-8.99	965.165295317	972.755000000	-2.28	971.984911576	 98.000	 1.414
1655861815.7982531	6.77800	977.180000000	-9.00	965.149292663	972.755000000	-2.28	971.984911576	 98.000	 1.017
1655861817.4963810	6.77200	977.180000000	-9.00	965.149292663	972.755000000	-2.28	971.984911576	 98.000	 1.506
1655861818.6991761	6.76200	977.025000000	-8.99	965.012201086	972.755000000	-2.28	971.984911576	 98.000	 -0.417
1655861820.8996730	6.75400	977.025000000	-8.99	965.012201086	972.600000000	-2.27	971.834080871	 98.000	 1.266
1655861822.1051080	6.74100	977.025000000	-8.99	965.012201086	972.600000000	-2.28	971.830034283	 98.000	 -1.200
1655861823.8059361	6.74000	976.870000000	-9.00	964.843109277	972.600000000	-2.28	971.830034283	 98.000	 -0.812
1655861825.0033879	6.73400	976.870000000	-8.99	964.859106855	972.600000000	-2.28	971.830034283	 98.000	 0.957
1655861826.7042170	6.72300	976.870000000	-8.99	964.859106855	972.445000000	-2.28	971.675156990	 98.000	 -1.116
1655861827.9070070	6.71400	976.870000000	-8.99	964.859106855	972.445000000	-2.28	971.675156990	 98.000	 0.547
1655861829.6134610	6.71000	976.870000000	-8.99	964.859106855	972.445000000	-2.27	971.679202933	 98.000	 1.560
1655861830.8029411	6.69700	976.720000000	-8.99	964.710951148	972.295000000	-2.27	971.529321057	 98.000	 0.054
1655861833.0060711	6.69200	976.565000000	-8.99	964.557856916	972.295000000	-2.28	971.525275739	 98.000	 0.941
1655861834.2068710	6.68100	976.565000000	-9.00	964.541864333	972.295000000	-2.28	971.525275739	 98.000	 -0.918
1655861835.9083400	6.67700	976.565000000	-9.00	964.541864333	972.295000000	-2.27	971.529321057	 98.000	 -0.517
1655861837.1074860	6.66800	976.565000000	-8.99	964.557856916	972.140000000	-2.28	971.370398445	 98.000	 -0.813
1655861838.8069730	6.66300	976.415000000	-8.99	964.409701209	972.140000000	-2.28	971.370398445	 98.000	 0.997
1655861840.0084219	6.65300	976.415000000	-8.99	964.409701209	972.140000000	-2.27	971.374443119	 98.000	 -0.686
1655861841.7082469	6.64700	976.415000000	-8.99	964.409701209	971.990000000	-2.28	971.220517194	 98.000	 -1.147
1655861842.9080529	6.63900	976.260000000	-8.99	964.256606978	971.990000000	-2.27	971.224561244	 98.000	 -0.834
1655861844.6125109	6.63600	976.260000000	-8.99	964.256606978	971.990000000	-2.27	971.224561244	 98.000	 -1.077
1655861845.8099649	6.62300	976.260000000	-8.99	964.256606978	971.990000000	-2.27	971.224561244	 98.000	 -1.390
1655861848.0194550	6.61500	976.260000000	-8.99	964.256606978	971.835000000	-2.28	971.065639901	 98.000	 -0.093
1655861849.2069149	6.60600	976.110000000	-8.99	964.108451270	971.835000000	-2.28	971.065639901	 98.000	 -1.205
1655861850.9057519	6.60000	976.110000000	-9.00	964.092466138	971.685000000	-2.27	970.919801430	 98.000	 0.241
1655861852.1111829	6.59500	976.110000000	-9.00	964.092466138	971.685000000	-2.27	970.919801430	 98.000	 -1.207
1655861853.8076651	6.58700	976.110000000	-9.00	964.092466138	971.685000000	-2.28	970.915758649	 98.000	 0.401
1655861855.0114560	6.57300	975.955000000	-8.99	963.955357039	971.685000000	-2.27	970.919801430	 98.000	 0.630
1655861856.7082801	6.56900	975.955000000	-8.99	963.955357039	971.685000000	-2.27	970.919801430	 98.000	 0.105
1655861857.9110870	6.56600	975.955000000	-8.99	963.955357039	971.685000000	-2.28	970.915758649	 98.000	 -0.872
1655861859.6135540	6.55700	975.955000000	-8.99	963.955357039	971.530000000	-2.27	970.768954982	 98.000	 1.104
1655861860.8093719	6.54900	975.805000000	-9.00	963.791221194	971.530000000	-2.28	970.760881356	 98.000	 0.973
1655861862.5148280	6.54400	975.805000000	-8.99	963.807201332	971.380000000	-2.27	970.615041617	 98.000	 -0.583
1655861863.7086501	6.52900	975.650000000	-8.99	963.654107100	971.380000000	-2.27	970.619072484	 98.000	 -0.794
1655861865.9137771	6.52100	975.650000000	-8.99	963.654107100	971.380000000	-2.27	970.615041617	 98.000	 -1.169
1655861867.1142190	6.51500	975.650000000	-8.99	963.654107100	971.380000000	-2.27	970.615041617	 98.000	 -1.038
1655861868.8140459	6.51200	975.650000000	-8.99	963.654107100	971.380000000	-2.28	970.611000105	 98.000	 -1.042
1655861870.0095069	6.50100	975.500000000	-8.99	963.505951393	971.225000000	-2.27	970.460163679	 98.000	 1.577
1655861871.7113431	6.49600	975.500000000	-8.99	963.505951393	971.075000000	-2.28	970.306241560	 98.000	 1.502
1655861872.9101341	6.48500	975.500000000	-8.99	963.505951393	971.075000000	-2.27	970.310281803	 98.000	 -0.576
1655861874.6122460	6.47900	975.345000000	-8.99	963.352857162	971.075000000	-2.27	970.310281803	 98.000	 -0.601
1655861875.8104179	6.46700	975.345000000	-8.99	963.352857162	971.075000000	-2.27	970.310281803	 98.000	 1.033
1655861878.0111921	6.46200	975.345000000	-8.99	963.352857162	970.920000000	-2.27	970.155403865	 98.000	 -0.530
1655861879.2100000	6.45200	975.345000000	-8.99	963.352857162	970.920000000	-2.27	970.155403865	 98.000	 0.032
1655861880.9174540	6.44800	975.345000000	-8.99	963.368819201	970.920000000	-2.27	970.155403865	 98.000	 1.208
1655861882.1196020	6.43800	975.195000000	-8.99	963.204701454	970.770000000	-2.27	970.005521990	 98.000	 1.450
1655861883.8180871	6.43200	975.195000000	-8.99	963.204701454	970.770000000	-2.27	970.005521990	 98.000	 1.150
1655861885.0155361	6.42300	975.040000000	-8.99	963.051607223	970.770000000	-2.27	970.005521990	 98.000	 -1.042
1655861886.7153790	6.41500	975.040000000	-8.99	963.051607223	970.770000000	-2.28	970.001483016	 98.000	 -1.021
1655861887.9158101	6.40600	975.040000000	-8.99	963.051607223	970.770000000	-2.28	970.001483016	 98.000	 -0.053
1655861890.1239290	6.40100	975.040000000	-8.99	963.051607223	970.615000000	-2.28	969.846605723	 98.000	 -1.171
1655861891.3530090	6.38700	974.890000000	-8.99	962.903451516	970.465000000	-2.27	969.700762176	 98.000	 1.175
1655861893.0441511	6.38300	974.890000000	-8.99	962.919406109	970.465000000	-2.28	969.696724471	 98.000	 1.134
1655861894.2329841	6.37200	974.890000000	-8.99	962.903451516	970.465000000	-2.28	969.696724471	 98.000	 1.366
1655861895.9248340	6.36600	974.735000000	-8.99	962.766309341	970.465000000	-2.28	969.696724471	 98.000	 -1.233
1655861897.1262770	6.35800	974.735000000	-8.99	962.750357284	970.465000000	-2.27	969.700762176	 98.000	 1.149
1655861898.8177710	6.35100	974.735000000	-8.99	962.766309341	970.310000000	-2.27	969.545884238	 98.000	 -1.297
1655861900.0205710	6.34200	974.585000000	-8.99	962.602201577	970.310000000	-2.27	969.545884238	 98.000	 1.190
1655861901.7283740	6.33600	974.585000000	-8.99	962.602201577	970.160000000	-2.27	969.400028168	 98.000	 1.240
1655861902.9218400	6.32700	974.585000000	-8.99	962.602201577	970.160000000	-2.27	969.400028168	 98.000	 0.737
1655861904.6256690	6.31600	974.430000000	-8.99	962.449107346	970.160000000	-2.27	969.396002362	 98.000	 -0.269
1655861905.8201201	6.30500	974.430000000	-8.99	962.449107346	970.005000000	-2.27	969.245149586	 98.000	 0.525
1655861908.0262439	6.29600	974.430000000	-8.99	962.449107346	970.005000000	-2.27	969.245149586	 98.000	 -0.254
1655861909.2230539	6.29000	974.280000000	-8.99	962.300951638	970.005000000	-2.27	969.241124424	 98.000	 -1.005
1655861910.9288740	6.28200	974.280000000	-8.99	962.316896249	970.005000000	-2.27	969.241124424	 98.000	 -0.775
1655861912.1286609	6.27300	974.280000000	-8.99	962.300951638	969.855000000	-2.27	969.091242549	 98.000	 1.092
1655861913.8291421	6.26200	974.125000000	-8.99	962.147857407	969.855000000	-2.27	969.095267088	 98.000	 0.266
1655861915.0259559	6.25600	974.125000000	-8.99	962.163799481	969.855000000	-2.27	969.091242549	 98.000	 -0.924
1655861916.7280650	6.25000	974.125000000	-8.99	962.147857407	969.855000000	-2.27	969.091242549	 98.000	 0.907
1655861917.9312220	6.24300	974.125000000	-8.99	962.147857407	969.855000000	-2.27	969.091242549	 98.000	 -0.237
1655861919.6403100	6.23500	974.125000000	-8.99	962.147857407	969.700000000	-2.27	968.936364611	 98.000	 -0.170
1655861920.8324909	6.22600	973.975000000	-8.99	961.999701700	969.700000000	-2.27	968.940388507	 98.000	 -0.070
1655861922.5306120	6.22400	973.975000000	-8.99	961.999701700	969.550000000	-2.27	968.790506009	 98.000	 -0.136
1655861923.7264881	6.20800	973.820000000	-8.99	961.862544551	969.550000000	-2.27	968.786482735	 98.000	 -0.417
1655861925.9295549	6.20700	973.820000000	-8.99	961.862544551	969.550000000	-2.27	968.786482735	 98.000	 1.591
1655861927.1373370	6.19300	973.670000000	-8.99	961.714386388	969.395000000	-2.27	968.635627428	 98.000	 -0.606
1655861928.8311880	6.19300	973.670000000	-8.99	961.714386388	969.550000000	-2.27	968.786482735	 98.000	 1.166
1655861930.0319829	6.18100	973.670000000	-8.99	961.714386388	969.245000000	-2.27	968.485744930	 98.000	 0.712
1655861931.7294681	6.17700	973.670000000	-8.99	961.714386388	969.245000000	-2.27	968.485744930	 98.000	 -1.021
1655861932.9292660	6.16800	973.515000000	-8.99	961.545357530	969.245000000	-2.27	968.481722922	 98.000	 -0.215
1655861934.6337380	6.16100	973.515000000	-8.99	961.545357530	969.090000000	-2.27	968.330866349	 98.000	 1.513
1655861935.8301849	6.15000	973.365000000	-8.99	961.413131458	969.090000000	-2.27	968.326844984	 98.000	 -0.260
1655861938.0283270	6.14100	973.365000000	-8.99	961.413131458	969.090000000	-2.27	968.326844984	 98.000	 -0.831
1655861939.2291329	6.13700	973.365000000	-8.99	961.413131458	968.940000000	-2.27	968.176963108	 98.000	 -0.382
1655861940.9399321	6.13100	973.365000000	-8.99	961.413131458	968.940000000	-2.27	968.176963108	 98.000	 0.786
1655861942.1347470	6.12300	973.210000000	-8.99	961.260034690	968.940000000	-2.27	968.176963108	 98.000	 0.275
1655861943.8362150	6.11500	973.210000000	-8.99	961.260034690	968.940000000	-2.27	968.176963108	 98.000	 -0.143
1655861945.0346701	6.10600	973.210000000	-8.99	961.260034690	968.785000000	-2.27	968.022085170	 98.000	 0.971
1655861946.7334981	6.09900	973.060000000	-8.99	961.111876528	968.785000000	-2.27	968.026105270	 98.000	 1.357
1655861947.9352951	6.09400	973.060000000	-8.99	961.111876528	968.785000000	-2.27	968.022085170	 98.000	 1.110
1655861949.6384029	6.08700	972.905000000	-8.99	960.942857652	968.635000000	-2.27	967.876222772	 98.000	 1.494
1655861950.8365741	6.07000	972.905000000	-8.99	960.942857652	968.635000000	-2.27	967.872203295	 98.000	 -0.684
1655861953.0363510	6.06700	972.905000000	-8.99	960.942857652	968.635000000	-2.28	967.868173204	 98.000	 -0.118
1655861954.2335370	6.06000	972.905000000	-8.99	960.942857652	968.480000000	-2.27	967.721344190	 98.000	 -1.060
1655861955.9376249	6.05200	972.755000000	-8.99	960.810621598	968.330000000	-2.27	967.567443481	 98.000	 -0.601
1655861957.1444070	6.04700	972.755000000	-8.99	960.794701945	968.330000000	-2.27	967.567443481	 98.000	 -1.208
1655861958.8339069	6.04200	972.755000000	-8.99	960.810621598	968.330000000	-2.28	967.563414659	 98.000	 1.071
1655861960.0360730	6.03200	972.600000000	-8.99	960.657524830	968.175000000	-2.27	967.416583111	 98.000	 0.438
1655861961.7351780	6.02700	972.600000000	-8.99	960.657524830	968.175000000	-2.27	967.412565543	 98.000	 -0.083
1655861962.9353421	6.01300	972.445000000	-8.99	960.504428062	968.175000000	-2.27	967.412565543	 98.000	 0.908
1655861964.6378050	6.01100	972.445000000	-8.99	960.504428062	968.175000000	-2.27	967.412565543	 98.000	 0.385
1655861965.8382530	6.00400	972.445000000	-8.99	960.504428062	968.175000000	-2.27	967.416583111	 98.000	 -0.572
1655861967.5407140	5.99300	972.445000000	-8.99	960.488513483	968.020000000	-2.27	967.257687605	 98.000	 -0.297
1655861968.7398751	5.98300	972.295000000	-8.99	960.356269900	968.020000000	-2.27	967.257687605	 98.000	 1.276
1655861970.9400189	5.97500	972.295000000	-8.99	960.356269900	967.870000000	-2.27	967.107805729	 98.000	 -0.129
1655861972.1408069	5.97000	972.295000000	-8.99	960.356269900	967.870000000	-2.27	967.111822032	 98.000	 -1.195
1655861973.8402801	5.96400	972.140000000	-8.99	960.203173132	967.870000000	-2.27	967.107805729	 98.000	 1.205
1655861975.0417330	5.95500	971.990000000	-8.99	960.055014970	967.870000000	-2.27	967.107805729	 98.000	 1.137
1655861976.7412050	5.95000	971.990000000	-8.99	960.055014970	967.715000000	-2.27	966.952927791	 98.000	 -1.131
1655861977.9433551	5.93600	971.990000000	-8.99	960.055014970	967.565000000	-2.27	966.807060953	 98.000	 -1.061
1655861979.6474631	5.93300	971.990000000	-8.99	960.055014970	967.565000000	-2.27	966.807060953	 98.000	 -0.505
1655861980.8502591	5.92300	971.990000000	-8.98	960.070911575	967.565000000	-2.27	966.807060953	 98.000	 -0.344
1655861982.5407569	5.91800	971.835000000	-8.99	959.886013605	967.410000000	-2.27	966.652182372	 98.000	 -0.685
1655861983.7445500	5.90500	971.835000000	-8.99	959.886013605	967.410000000	-2.27	966.652182372	 98.000	 0.472
1655861985.9470420	5.89800	971.685000000	-8.99	959.753760040	967.410000000	-2.27	966.648167978	 98.000	 -0.385
1655861987.1454940	5.89400	971.685000000	-8.99	959.753760040	967.410000000	-2.27	966.652182372	 98.000	 -0.082
1655861988.8433230	5.88500	971.685000000	-8.99	959.753760040	967.260000000	-2.27	966.502299874	 98.000	 1.203
1655861990.0500989	5.87800	971.685000000	-8.99	959.753760040	967.260000000	-2.27	966.502299874	 98.000	 -1.066
1655861991.7515819	5.87200	971.530000000	-8.99	959.600663272	967.260000000	-2.27	966.502299874	 98.000	 -0.608
1655861992.9500270	5.85900	971.530000000	-8.99	959.600663272	967.105000000	-2.27	966.347421292	 98.000	 1.490
1655861995.1561520	5.85600	971.380000000	-8.99	959.436607959	967.105000000	-2.27	966.343408164	 98.000	 1.388
1655861996.3902099	5.84100	971.380000000	-8.99	959.452505109	967.105000000	-2.27	966.343408164	 98.000	 0.478
1655861998.0783670	5.83900	971.380000000	-8.99	959.436607959	967.105000000	-2.27	966.343408164	 98.000	 -1.123
1655861999.2642069	5.82700	971.225000000	-8.99	959.299408342	966.955000000	-2.27	966.197538795	 98.000	 1.167
1655862000.9590530	5.82500	971.225000000	-8.99	959.299408342	966.955000000	-2.27	966.193526289	 98.000	 0.468
1655862002.1624880	5.81600	971.075000000	-8.99	959.151250179	966.955000000	-2.27	966.193526289	 98.000	 0.865
1655862003.8543260	5.81000	971.075000000	-8.99	959.151250179	966.800000000	-2.27	966.038648351	 98.000	 0.370
1655862005.0551269	5.79600	971.075000000	-8.99	959.151250179	966.650000000	-2.27	965.888766475	 98.000	 0.159
1655862006.7566061	5.79200	971.075000000	-8.99	959.151250179	966.800000000	-2.27	966.038648351	 98.000	 1.402
1655862007.9574101	5.78400	970.920000000	-8.98	959.014032517	966.650000000	-2.27	965.892777715	 98.000	 -0.611
1655862009.6655011	5.77600	970.920000000	-8.98	959.014032517	966.650000000	-2.27	965.888766475	 98.000	 1.188
1655862010.8596799	5.76800	970.920000000	-8.99	958.998153411	966.495000000	-2.27	965.733888537	 98.000	 -0.973
1655862013.0608139	5.76200	970.770000000	-8.99	958.849995249	966.495000000	-2.27	965.737899134	 98.000	 -1.223
1655862014.2665861	5.75000	970.770000000	-8.99	958.849995249	966.495000000	-2.27	965.733888537	 98.000	 -0.866
1655862015.9640810	5.75100	970.770000000	-8.99	958.849995249	966.495000000	-2.26	965.741899140	 98.000	 -0.214
1655862017.1598821	5.73500	970.615000000	-8.99	958.696898481	966.345000000	-2.26	965.592016022	 98.000	 -1.037
1655862018.8593740	5.73100	970.615000000	-8.99	958.696898481	966.190000000	-2.27	965.433138055	 98.000	 -1.053
1655862020.0601730	5.72300	970.615000000	-8.99	958.696898481	966.190000000	-2.27	965.429128724	 98.000	 -1.004
1655862021.7552960	5.71300	970.465000000	-8.98	958.564611983	966.190000000	-2.27	965.429128724	 98.000	 -0.963
1655862022.9554551	5.70800	970.465000000	-8.99	958.548740319	966.190000000	-2.27	965.429128724	 98.000	 -1.182
1655862025.1645689	5.69600	970.465000000	-8.98	958.564611983	966.040000000	-2.27	965.283255557	 98.000	 1.449
1655862026.4019160	5.69300	970.465000000	-8.98	958.564611983	966.040000000	-2.27	965.283255557	 98.000	 -0.383
1655862027.5921099	5.69000	970.310000000	-8.99	958.395643551	966.040000000	-2.27	965.283255557	 98.000	 0.330
1655862028.7839360	5.67700	970.160000000	-8.99	958.247485389	965.885000000	-2.27	965.124368910	 98.000	 1.447
1655862030.4750690	5.67100	970.160000000	-8.98	958.263352065	965.885000000	-2.27	965.128376976	 98.000	 0.867
1655862031.6658940	5.66000	970.160000000	-8.99	958.247485389	965.735000000	-2.27	964.978494478	 98.000	 1.020
1655862033.8660350	5.65400	970.005000000	-8.98	958.110252762	965.735000000	-2.27	964.978494478	 98.000	 -0.341
1655862035.0618491	5.64400	970.005000000	-8.98	958.110252762	965.735000000	-2.27	964.978494478	 98.000	 1.352
1655862036.7623191	5.63600	970.005000000	-8.98	958.110252762	965.580000000	-2.27	964.823615897	 98.000	 -0.955
1655862037.9631169	5.62900	970.005000000	-8.98	958.110252762	965.580000000	-2.27	964.823615897	 98.000	 -0.192
1655862039.6769149	5.61900	969.855000000	-8.98	957.962092146	965.580000000	-2.27	964.823615897	 98.000	 -0.675
1655862040.8687379	5.61100	969.855000000	-8.99	957.946230459	965.430000000	-2.27	964.673733399	 98.000	 -0.334
1655862042.5702159	5.60400	969.700000000	-8.99	957.793133691	965.430000000	-2.26	964.677728997	 98.000	 -0.688
1655862043.7690079	5.59300	969.700000000	-8.99	957.793133691	965.430000000	-2.27	964.673733399	 98.000	 -0.233
1655862045.9707890	5.58300	969.700000000	-8.99	957.793133691	965.275000000	-2.27	964.518854817	 98.000	 -1.037
1655862047.1739380	5.58100	969.700000000	-8.98	957.808992844	965.275000000	-2.27	964.518854817	 98.000	 -1.048
1655862048.8710620	5.56600	969.550000000	-8.98	957.660832228	965.275000000	-2.27	964.518854817	 98.000	 1.450
1655862050.0742021	5.55900	969.550000000	-8.98	957.660832228	965.125000000	-2.27	964.368972319	 98.000	 0.210
1655862051.7716961	5.55300	969.550000000	-8.98	957.660832228	965.125000000	-2.27	964.368972319	 98.000	 -0.688
1655862052.9701469	5.54000	969.245000000	-8.99	957.343720598	965.125000000	-2.27	964.368972319	 98.000	 1.192
1655862054.6795881	5.54000	969.245000000	-8.99	957.343720598	964.970000000	-2.27	964.214093738	 98.000	 -0.252
1655862055.8737640	5.53000	969.245000000	-8.99	957.343720598	964.820000000	-2.27	964.060207594	 98.000	 0.875
1655862057.5748770	5.51900	969.090000000	-8.99	957.190623830	964.820000000	-2.27	964.064211240	 98.000	 -0.834
1655862058.7756770	5.51500	969.090000000	-8.98	957.206473007	964.820000000	-2.27	964.064211240	 98.000	 -0.527
1655862060.9758191	5.50800	969.090000000	-8.98	957.206473007	964.665000000	-2.27	963.909332659	 98.000	 1.149
1655862062.1826010	5.49600	968.940000000	-8.98	957.058312391	964.515000000	-2.27	963.759450161	 98.000	 -1.161
1655862063.8790851	5.49400	968.940000000	-8.98	957.058312391	964.665000000	-2.27	963.909332659	 98.000	 0.012
1655862065.0778911	5.48600	968.940000000	-8.98	957.058312391	964.515000000	-2.27	963.759450161	 98.000	 -0.997
1655862066.7817080	5.47300	968.785000000	-8.98	956.905213089	964.515000000	-2.26	963.763441973	 98.000	 -0.504
1655862067.9785199	5.47000	968.785000000	-8.98	956.905213089	964.515000000	-2.27	963.755447780	 98.000	 0.154
1655862069.6829801	5.45700	968.635000000	-8.99	956.741210738	964.360000000	-2.26	963.608562750	 98.000	 -0.083
1655862070.8807800	5.45500	968.635000000	-8.98	956.757052473	964.360000000	-2.27	963.604571580	 98.000	 0.408
1655862072.5822561	5.44700	968.635000000	-8.98	956.757052473	964.210000000	-2.27	963.454689082	 98.000	 -0.049
1655862073.7820661	5.43900	968.635000000	-8.98	956.757052473	964.210000000	-2.27	963.454689082	 98.000	 -0.861
1655862075.9901769	5.43000	968.480000000	-8.98	956.603953170	964.055000000	-2.27	963.295810029	 98.000	 -0.053
1655862077.1909699	5.42200	968.330000000	-8.98	956.455792555	964.055000000	-2.26	963.303800409	 98.000	 -1.177
1655862078.8804779	5.41600	968.330000000	-8.98	956.455792555	964.055000000	-2.26	963.303800409	 98.000	 1.131
1655862080.0842719	5.40900	968.175000000	-8.98	956.302693252	963.900000000	-2.26	963.148921186	 98.000	 -1.069
1655862081.7757649	5.39400	968.175000000	-8.99	956.286859040	963.750000000	-2.26	962.999038067	 98.000	 0.704
1655862082.9841919	5.39700	968.175000000	-8.98	956.302693252	963.750000000	-2.27	962.995049421	 98.000	 0.900
1655862084.6816730	5.38300	968.020000000	-8.98	956.149593949	963.750000000	-2.27	962.995049421	 98.000	 -0.032
1655862085.8768420	5.37700	968.020000000	-8.99	956.133762272	963.595000000	-2.26	962.844158844	 98.000	 1.259
1655862088.0809700	5.37200	968.020000000	-8.98	956.149593949	963.595000000	-2.26	962.844158844	 98.000	 -1.233
1655862089.2814181	5.35900	967.870000000	-8.98	956.001433334	963.595000000	-2.26	962.844158844	 98.000	 0.156
1655862090.9892261	5.35900	967.870000000	-8.98	956.001433334	963.595000000	-2.26	962.844158844	 98.000	 1.113
1655862092.1840351	5.34100	967.565000000	-8.98	955.700173415	963.445000000	-2.27	962.686290402	 98.000	 -0.094
1655862093.8825140	5.33500	967.565000000	-8.98	955.700173415	963.290000000	-2.26	962.539396503	 98.000	 -1.022
1655862095.0829611	5.33000	967.565000000	-8.98	955.700173415	963.445000000	-2.26	962.694275726	 98.000	 0.602
1655862096.7867711	5.32400	967.565000000	-8.98	955.700173415	963.290000000	-2.27	962.535409761	 98.000	 0.404
1655862097.9835920	5.31500	967.410000000	-8.98	955.547074112	963.140000000	-2.27	962.385527263	 98.000	 -1.122
1655862100.1893599	5.30700	967.410000000	-8.98	955.547074112	963.140000000	-2.27	962.385527263	 98.000	 1.335
1655862101.4244249	5.29600	967.260000000	-8.98	955.398913497	962.985000000	-2.27	962.230648682	 98.000	 -0.835
1655862103.1189160	5.28800	967.260000000	-8.98	955.398913497	962.985000000	-2.26	962.234634161	 98.000	 0.512
1655862104.3143699	5.28200	967.260000000	-8.98	955.398913497	962.835000000	-2.27	962.080766184	 98.000	 -1.110
1655862106.0042109	5.27500	967.105000000	-8.98	955.245814194	962.835000000	-2.27	962.080766184	 98.000	 -0.965
1655862107.1960361	5.26600	967.105000000	-8.98	955.245814194	962.680000000	-2.26	961.929871820	 98.000	 -0.957
1655862108.8871901	5.26100	967.105000000	-8.98	955.245814194	962.680000000	-2.27	961.925887603	 98.000	 0.878
1655862110.0889890	5.25200	966.955000000	-8.98	955.097653579	962.680000000	-2.27	961.925887603	 98.000	 -0.295
1655862111.7928050	5.24500	966.955000000	-8.98	955.097653579	962.530000000	-2.27	961.776005105	 98.000	 -0.996
1655862112.9946051	5.23800	966.800000000	-8.98	954.944554276	962.530000000	-2.27	961.776005105	 98.000	 1.033
1655862114.7007060	5.22900	966.800000000	-8.98	954.960355528	962.530000000	-2.26	961.779988701	 98.000	 0.106
1655862115.8918869	5.22400	966.650000000	-8.98	954.796393660	962.530000000	-2.26	961.779988701	 98.000	 0.860
1655862117.5949931	5.21500	966.650000000	-8.98	954.796393660	962.375000000	-2.27	961.621126523	 98.000	 -0.182
1655862118.7957950	5.20900	966.650000000	-8.98	954.796393660	962.375000000	-2.26	961.625109478	 98.000	 -0.576
1655862120.9892919	5.19800	966.495000000	-8.98	954.643294357	962.225000000	-2.27	961.471244025	 98.000	 1.102
1655862122.1967349	5.19600	966.495000000	-8.98	954.643294357	962.225000000	-2.27	961.471244025	 98.000	 -1.264
1655862123.8965631	5.18600	966.345000000	-8.98	954.495133742	962.070000000	-2.26	961.320347137	 98.000	 -0.874
1655862125.0953779	5.17400	966.345000000	-8.98	954.510927557	962.070000000	-2.26	961.320347137	 98.000	 1.031
1655862126.8014679	5.16300	966.190000000	-8.98	954.357825721	961.920000000	-2.26	961.170464018	 98.000	 1.515
1655862128.0006311	5.15600	966.190000000	-8.98	954.357825721	961.920000000	-2.26	961.174434550	 98.000	 0.634
1655862129.7027431	5.15700	966.190000000	-8.98	954.357825721	961.920000000	-2.26	961.174434550	 98.000	 1.240
1655862130.8925710	5.14100	966.040000000	-8.98	954.193873823	961.765000000	-2.26	961.015584795	 98.000	 -1.058
1655862133.0960691	5.13300	966.040000000	-8.98	954.193873823	961.765000000	-2.27	961.011604365	 98.000	 1.036
1655862134.2895219	5.12500	965.885000000	-8.98	954.040774521	961.615000000	-2.26	960.865701677	 98.000	 0.746
1655862135.9899931	5.12000	965.885000000	-8.98	954.040774521	961.615000000	-2.26	960.869670949	 98.000	 -1.039
1655862137.1981249	5.11000	965.735000000	-8.98	953.908397751	961.615000000	-2.26	960.865701677	 98.000	 0.709
1655862138.8926170	5.10800	965.735000000	-8.98	953.892613905	961.460000000	-2.26	960.710822454	 98.000	 -1.080
1655862140.0934219	5.09400	965.735000000	-8.98	953.908397751	961.460000000	-2.27	960.706843286	 98.000	 -0.003
1655862141.7935359	5.09000	965.580000000	-8.98	953.739514602	961.310000000	-2.26	960.560939335	 98.000	 -1.018
1655862142.9923410	5.08000	965.580000000	-8.98	953.755295915	961.155000000	-2.26	960.406060112	 98.000	 0.311
1655862144.6987951	5.07700	965.580000000	-8.98	953.739514602	961.155000000	-2.27	960.402082207	 98.000	 -0.304
1655862145.8949640	5.05800	965.430000000	-8.98	953.607132848	961.005000000	-2.26	960.256176994	 98.000	 1.169
1655862148.0961039	5.05400	965.275000000	-8.98	953.438254684	961.005000000	-2.26	960.256176994	 98.000	 1.197
1655862149.2958961	5.04700	965.275000000	-8.98	953.454031012	961.005000000	-2.26	960.256176994	 98.000	 -0.829
1655862150.9963889	5.03100	965.125000000	-8.98	953.290094068	960.850000000	-2.26	960.101297771	 98.000	 0.804
1655862152.2001531	5.03500	965.125000000	-8.98	953.290094068	960.850000000	-2.27	960.097321127	 98.000	 1.097
1655862153.8976049	5.02400	965.125000000	-8.98	953.290094068	960.700000000	-2.26	959.951414652	 98.000	 0.299
1655862155.0970960	5.01400	964.970000000	-8.98	953.136994766	960.700000000	-2.26	959.951414652	 98.000	 -0.189
1655862156.7999120	5.01300	964.970000000	-8.98	953.136994766	960.700000000	-2.26	959.951414652	 98.000	 0.439
1655862157.9997089	4.99300	964.820000000	-8.98	953.004603041	960.545000000	-2.26	959.796535429	 98.000	 -1.130
1655862160.2074809	4.99200	964.665000000	-8.98	952.851501205	960.395000000	-2.26	959.646652311	 98.000	 0.142
1655862161.4415410	4.98900	964.665000000	-8.98	952.851501205	960.395000000	-2.26	959.646652311	 98.000	 0.475
1655862162.6320231	4.98000	964.665000000	-8.98	952.851501205	960.395000000	-2.27	959.642677550	 98.000	 1.478
1655862163.8222089	4.96700	964.515000000	-8.98	952.687574232	960.240000000	-2.26	959.495736685	 98.000	 -0.451
1655862166.0150120	4.96000	964.515000000	-8.98	952.703338138	960.090000000	-2.26	959.341889969	 98.000	 -0.621
1655862167.2168150	4.95000	964.360000000	-8.98	952.550236302	959.935000000	-2.27	959.183037890	 98.000	 -0.309
1655862168.9154990	4.94700	964.360000000	-8.98	952.550236302	959.935000000	-2.26	959.187010746	 98.000	 1.088
1655862170.1120951	4.93800	964.210000000	-8.98	952.402073235	959.935000000	-2.26	959.187010746	 98.000	 0.675
1655862171.8119290	4.93400	964.210000000	-8.98	952.402073235	959.935000000	-2.26	959.187010746	 98.000	 1.293
1655862173.0153639	4.92400	964.210000000	-8.98	952.402073235	959.785000000	-2.26	959.041089347	 98.000	 -0.475
1655862174.7151821	4.92500	964.055000000	-8.98	952.233215011	959.785000000	-2.26	959.037127628	 98.000	 0.284
1655862175.9106510	4.90400	963.900000000	-8.98	952.095869563	959.630000000	-2.26	958.882248405	 98.000	 0.080
1655862178.1127851	4.90300	963.900000000	-8.98	952.095869563	959.630000000	-2.26	958.882248405	 98.000	 0.625
1655862179.3085990	4.89100	963.750000000	-8.98	951.947706496	959.475000000	-2.26	958.727369182	 98.000	 0.836
1655862181.0110650	4.88700	963.750000000	-8.98	951.947706496	959.325000000	-2.26	958.577486063	 98.000	 0.100
1655862182.2148550	4.87700	963.595000000	-8.98	951.794604660	959.325000000	-2.26	958.577486063	 98.000	 1.455
1655862183.9127030	4.87000	963.595000000	-8.98	951.778855790	959.170000000	-2.26	958.422606841	 98.000	 -0.151
1655862185.1151309	4.86000	963.445000000	-8.98	951.646441592	959.170000000	-2.26	958.422606841	 98.000	 1.045
1655862186.8175969	4.85800	963.445000000	-8.98	951.646441592	959.170000000	-2.26	958.422606841	 98.000	 -1.321
1655862188.0117710	4.84200	963.290000000	-8.98	951.493339756	959.020000000	-2.26	958.272723722	 98.000	 1.299
1655862189.7208641	4.84300	963.290000000	-8.98	951.493339756	959.020000000	-2.26	958.276682283	 98.000	 0.721
1655862190.9166801	4.83300	963.140000000	-8.98	951.345176689	958.865000000	-2.26	958.117844499	 98.000	 0.767
1655862192.6155000	4.82400	962.985000000	-8.98	951.192074853	958.865000000	-2.26	958.121802421	 98.000	 1.296
1655862193.8202970	4.82100	962.985000000	-8.98	951.192074853	958.715000000	-2.26	957.967961380	 98.000	 -0.148
1655862195.5204120	4.81600	962.985000000	-8.98	951.192074853	958.715000000	-2.27	957.963993573	 98.000	 1.302
1655862196.7235570	4.80500	962.835000000	-8.98	951.043911786	958.560000000	-2.26	957.813082158	 98.000	 0.978
1655862198.9207010	4.79000	962.835000000	-8.98	951.043911786	958.410000000	-2.26	957.667155082	 98.000	 -1.092
1655862200.1231530	4.78800	962.680000000	-8.98	950.890809950	958.410000000	-2.26	957.663199039	 98.000	 -0.033
1655862201.8199949	4.78000	962.680000000	-8.98	950.890809950	958.255000000	-2.26	957.512275220	 98.000	 0.573
1655862203.0224309	4.76800	962.530000000	-8.98	950.742646883	958.105000000	-2.26	957.358436698	 98.000	 -0.005
1655862204.7278850	4.76600	962.530000000	-8.98	950.742646883	958.255000000	-2.25	957.516220123	 98.000	 0.326
1655862205.9230580	4.75800	962.375000000	-8.98	950.589545047	958.105000000	-2.26	957.362391482	 98.000	 1.553
1655862207.6281619	4.75400	962.375000000	-8.98	950.589545047	958.105000000	-2.26	957.358436698	 98.000	 0.023
1655862208.8243289	4.73400	962.070000000	-8.98	950.288280143	957.800000000	-2.26	957.057627881	 98.000	 -0.534
1655862211.0300989	4.73100	962.070000000	-8.98	950.288280143	957.800000000	-2.26	957.057627881	 98.000	 -1.045
1655862212.2392199	4.72000	961.920000000	-8.98	950.140117076	957.800000000	-2.26	957.057627881	 98.000	 0.948
1655862213.9287360	4.71700	961.920000000	-8.98	950.140117076	957.800000000	-2.26	957.057627881	 98.000	 -0.736
1655862215.1265309	4.71300	961.920000000	-8.98	950.140117076	957.645000000	-2.26	956.902748019	 98.000	 -0.934
1655862216.8240199	4.69900	961.765000000	-8.98	949.987015240	957.495000000	-2.26	956.748912015	 98.000	 0.704
1655862218.0337920	4.69400	961.615000000	-8.98	949.838852173	957.340000000	-2.26	956.594032792	 98.000	 1.062
1655862219.7299271	4.68500	961.615000000	-8.97	949.854558266	957.340000000	-2.26	956.597984418	 98.000	 -0.742
1655862220.9270980	4.68800	961.615000000	-8.98	949.838852173	957.340000000	-2.26	956.594032792	 98.000	 0.684
1655862222.6282029	4.67000	961.460000000	-8.98	949.685750337	957.190000000	-2.26	956.448100680	 98.000	 -0.170
1655862223.8303599	4.65700	961.310000000	-8.98	949.537587270	957.035000000	-2.26	956.289270450	 98.000	 0.103
1655862226.0304959	4.65000	961.310000000	-8.98	949.537587270	957.035000000	-2.26	956.293220818	 98.000	 0.201
1655862227.2339339	4.64200	961.155000000	-8.97	949.400184014	956.885000000	-2.26	956.139387332	 98.000	 -1.068
1655862228.9327641	4.64000	961.155000000	-8.97	949.400184014	956.885000000	-2.26	956.143337080	 98.000	 0.965
1655862230.1312160	4.62900	961.005000000	-8.98	949.236322367	956.580000000	-2.26	955.838573480	 98.000	 0.823
1655862231.8290570	4.62100	960.850000000	-8.98	949.083220531	956.580000000	-2.26	955.838573480	 98.000	 -0.952
1655862233.0295000	4.61000	960.850000000	-8.98	949.083220531	956.425000000	-2.26	955.679745767	 98.000	 0.132
1655862234.7383039	4.60800	960.700000000	-8.98	948.935057463	956.425000000	-2.26	955.683693617	 98.000	 -0.153
1655862235.9361081	4.59600	960.700000000	-8.97	948.950748612	956.425000000	-2.26	955.683693617	 98.000	 -0.434
1655862237.6322351	4.59200	960.700000000	-8.97	948.950748612	956.275000000	-2.26	955.529862649	 98.000	 -0.205
1655862238.8340321	4.58200	960.395000000	-8.98	948.633792560	956.120000000	-2.26	955.374983426	 98.000	 1.162
1655862240.5365031	4.57800	960.395000000	-8.98	948.633792560	956.120000000	-2.26	955.378930017	 98.000	 1.434
1655862241.7522609	4.56700	960.240000000	-8.98	948.480690724	955.970000000	-2.25	955.232981775	 98.000	 1.225
1655862243.9424231	4.55700	960.090000000	-8.97	948.348208842	955.815000000	-2.26	955.074166416	 98.000	 -0.985
1655862245.1366031	4.55100	960.090000000	-8.97	948.348208842	955.815000000	-2.26	955.074166416	 98.000	 -0.654
1655862246.8420770	4.54900	960.090000000	-8.97	948.348208842	955.815000000	-2.26	955.074166416	 98.000	 1.204
1655862248.0365219	4.53800	959.935000000	-8.97	948.195104474	955.665000000	-2.26	954.924282678	 98.000	 0.383
1655862249.7393379	4.53100	959.785000000	-8.97	948.046938957	955.510000000	-2.26	954.769402816	 98.000	 0.644
1655862250.9417810	4.52200	959.785000000	-8.97	948.046938957	955.510000000	-2.26	954.769402816	 98.000	 1.139
1655862252.6366251	4.51400	959.630000000	-8.97	947.893834590	955.360000000	-2.26	954.619519078	 98.000	 -0.659
1655862253.8400569	4.50300	959.475000000	-8.97	947.740730222	955.205000000	-2.26	954.460696401	 98.000	 1.418
1655862255.5495059	4.50500	959.475000000	-8.97	947.740730222	955.205000000	-2.25	954.468571562	 98.000	 -1.054
1655862256.7446661	4.49000	959.325000000	-8.98	947.576896014	955.050000000	-2.26	954.309759353	 98.000	 -0.689
1655862258.9428260	4.48900	959.325000000	-8.97	947.592564705	955.050000000	-2.26	954.309759353	 98.000	 1.171
1655862260.1456070	4.47500	959.170000000	-8.97	947.439460337	954.745000000	-2.25	954.008926206	 98.000	 -1.266
1655862261.8390491	4.47200	959.170000000	-8.97	947.439460337	954.745000000	-2.25	954.008926206	 98.000	 -0.736
1655862263.0455370	4.46400	959.020000000	-8.97	947.291294820	954.745000000	-2.26	954.004995752	 98.000	 -0.951
1655862264.7503400	4.45300	958.865000000	-8.97	947.138190452	954.595000000	-2.26	953.855112014	 98.000	 0.519
1655862265.9441750	4.45200	958.865000000	-8.97	947.138190452	954.595000000	-2.26	953.855112014	 98.000	 -0.136
1655862267.6416490	4.44100	958.715000000	-8.97	946.990024935	954.440000000	-2.25	953.704161350	 98.000	 1.487
1655862268.8464379	4.43300	958.715000000	-8.97	946.990024935	954.290000000	-2.25	953.554276994	 98.000	 -0.476
1655862271.0455861	4.42300	958.410000000	-8.97	946.688755050	954.290000000	-2.25	953.554276994	 98.000	 1.012
1655862272.2503610	4.41400	958.410000000	-8.97	946.688755050	953.985000000	-2.26	953.245584814	 98.000	 1.436
1655862273.9488461	4.41000	958.255000000	-8.97	946.535650683	953.985000000	-2.26	953.245584814	 98.000	 -1.053
1655862275.1512880	4.39500	958.105000000	-8.97	946.387485166	953.830000000	-2.26	953.090704951	 98.000	 1.237
1655862276.8517580	4.39200	958.105000000	-8.97	946.387485166	953.830000000	-2.26	953.090704951	 98.000	 1.273
1655862278.0499210	4.38500	957.950000000	-8.97	946.234380798	953.680000000	-2.26	952.940821213	 98.000	 1.099
1655862279.7544050	4.37900	957.950000000	-8.97	946.234380798	953.680000000	-2.26	952.940821213	 98.000	 -1.025
1655862280.9528329	4.37900	957.950000000	-8.97	946.234380798	953.525000000	-2.26	952.785941351	 98.000	 -1.188
1655862282.6582890	4.36200	957.800000000	-8.97	946.086215281	953.525000000	-2.25	952.789866781	 98.000	 0.139
1655862283.8481579	4.36200	957.800000000	-8.97	946.086215281	953.375000000	-2.26	952.636057613	 98.000	 0.948
1655862285.5519371	4.34100	957.340000000	-8.96	945.647466927	953.070000000	-2.26	952.327360011	 98.000	 -1.045
1655862286.7547309	4.33900	957.340000000	-8.97	945.631841028	953.070000000	-2.25	952.335217570	 98.000	 1.675
1655862288.9518790	4.33100	957.190000000	-8.97	945.483675511	952.915000000	-2.26	952.176414150	 98.000	 0.764
1655862290.1536770	4.32700	957.190000000	-8.97	945.483675511	952.915000000	-2.25	952.180337069	 98.000	 -1.281
1655862291.8518000	4.31500	957.035000000	-8.97	945.330571143	952.765000000	-2.25	952.030452714	 98.000	 -1.236
1655862293.0499680	4.31300	957.035000000	-8.97	945.330571143	952.765000000	-2.25	952.030452714	 98.000	 0.338
1655862294.7554390	4.30100	956.885000000	-8.97	945.182405626	952.610000000	-2.25	951.875572213	 98.000	 0.540
1655862295.9508770	4.29800	956.885000000	-8.97	945.182405626	952.610000000	-2.25	951.875572213	 98.000	 -0.646
1655862297.6503501	4.28700	956.580000000	-8.97	944.881135742	952.460000000	-2.25	951.725687858	 98.000	 -0.091
1655862298.8481600	4.28300	956.580000000	-8.97	944.881135742	952.305000000	-2.25	951.570807357	 98.000	 -0.356
1655862300.5529809	4.27300	956.425000000	-8.97	944.728031374	952.155000000	-2.25	951.420923002	 98.000	 0.226
1655862301.7554159	4.26300	956.275000000	-8.97	944.579865857	952.000000000	-2.24	951.269951222	 98.000	 -0.572
1655862303.9539199	4.25600	956.275000000	-8.97	944.579865857	952.000000000	-2.25	951.266042501	 98.000	 0.692
1655862305.1503711	4.24900	956.120000000	-8.97	944.426761489	951.850000000	-2.24	951.120066251	 98.000	 0.732
1655862306.8548369	4.24200	955.970000000	-8.97	944.278595972	951.850000000	-2.26	951.112239610	 98.000	 -0.140
1655862308.0566311	4.23800	955.970000000	-8.97	944.278595972	951.695000000	-2.25	950.961277645	 98.000	 0.657
1655862309.7634289	4.22800	955.815000000	-8.96	944.141092612	951.695000000	-2.25	950.961277645	 98.000	 -0.192
1655862310.9642379	4.21800	955.665000000	-8.97	943.977326087	951.545000000	-2.25	950.811393290	 98.000	 -0.934
1655862312.6527419	4.20900	955.665000000	-8.97	943.977326087	951.390000000	-2.25	950.656512789	 98.000	 -0.185
1655862313.8581760	4.20200	955.510000000	-8.97	943.824221719	951.240000000	-2.25	950.506628434	 98.000	 -0.810
1655862316.0623040	4.19100	955.360000000	-8.96	943.691649784	951.085000000	-2.26	950.347832547	 98.000	 0.213
1655862317.2604570	4.17900	955.205000000	-8.97	943.522951835	950.935000000	-2.26	950.197948809	 98.000	 1.310
1655862318.9549510	4.17700	955.205000000	-8.97	943.522951835	950.935000000	-2.25	950.201863578	 98.000	 -0.384
1655862320.1557441	4.17000	954.900000000	-8.96	943.237268023	950.780000000	-2.25	950.046983077	 98.000	 0.859
1655862321.8558681	4.16000	954.745000000	-8.96	943.084161125	950.625000000	-2.25	949.892102576	 98.000	 -0.827
1655862323.0576680	4.15500	954.745000000	-8.96	943.084161125	950.475000000	-2.25	949.742218221	 98.000	 1.187
1655862324.7594881	4.14700	954.595000000	-8.97	942.920412065	950.475000000	-2.25	949.742218221	 98.000	 -0.149
1655862325.9572980	4.14100	954.595000000	-8.96	942.935993160	950.320000000	-2.24	949.591239544	 98.000	 -1.063
1655862327.6554201	4.13400	954.440000000	-8.96	942.782886262	950.170000000	-2.24	949.441354572	 98.000	 0.770
1655862328.8562210	4.12300	954.290000000	-8.96	942.634718297	950.015000000	-2.24	949.286473435	 98.000	 0.857
1655862331.0563569	4.11700	954.135000000	-8.96	942.481611399	949.865000000	-2.24	949.136588464	 98.000	 1.230
1655862332.2634890	4.10800	953.985000000	-8.96	942.333443434	949.710000000	-2.24	948.981707327	 98.000	 1.305
1655862333.9686019	4.11100	953.985000000	-8.96	942.333443434	949.865000000	-2.24	949.136588464	 98.000	 -0.820
1655862335.1614251	4.09600	953.830000000	-8.96	942.180336536	949.560000000	-2.24	948.831822356	 98.000	 -0.343
1655862336.8589029	4.09000	953.680000000	-8.96	942.032168571	949.405000000	-2.25	948.673043152	 98.000	 -1.176
1655862338.0656869	4.08200	953.525000000	-8.96	941.879061673	949.255000000	-2.25	948.523158797	 98.000	 -1.119
1655862339.7701559	4.07300	953.525000000	-8.96	941.879061673	949.255000000	-2.25	948.523158797	 98.000	 -0.578
1655862340.9629681	4.07300	953.525000000	-8.96	941.879061673	949.255000000	-2.25	948.523158797	 98.000	 0.898
1655862342.6608219	4.06100	953.375000000	-8.96	941.730893708	949.100000000	-2.25	948.368278296	 98.000	 1.082
1655862343.8592501	4.04800	953.070000000	-8.96	941.429618844	948.795000000	-2.24	948.067409002	 98.000	 -0.166
1655862345.5610740	4.04500	952.915000000	-8.96	941.276511947	948.795000000	-2.25	948.063513440	 98.000	 1.125
1655862346.7648699	4.03600	952.765000000	-8.96	941.143884886	948.645000000	-2.25	947.913629085	 98.000	 -0.827
1655862348.9606640	4.02900	952.765000000	-8.96	941.128343981	948.340000000	-2.24	947.612757922	 98.000	 -0.780
1655862350.1634591	4.02100	952.610000000	-8.96	940.975237084	948.340000000	-2.24	947.612757922	 98.000	 -0.937
1655862351.8599401	4.01100	952.460000000	-8.96	940.827069118	948.185000000	-2.24	947.461759453	 98.000	 -0.524
1655862353.0660779	4.00800	952.460000000	-8.96	940.827069118	948.035000000	-2.25	947.304099372	 98.000	 -0.732
1655862354.7645600	3.99400	952.000000000	-8.96	940.372687358	947.880000000	-2.24	947.153110677	 98.000	 -0.175
1655862355.9603801	3.99200	952.000000000	-8.96	940.372687358	947.730000000	-2.24	947.003225706	 98.000	 -1.031
1655862357.6604879	3.98000	952.000000000	-8.96	940.372687358	947.730000000	-2.24	947.003225706	 98.000	 1.543
1655862358.8622849	3.98200	951.850000000	-8.96	940.240045372	947.575000000	-2.24	946.848344569	 98.000	 0.223
1655862361.0637779	3.96200	951.545000000	-8.96	939.923244529	947.270000000	-2.25	946.539689160	 98.000	 1.356
1655862362.2682121	3.95500	951.240000000	-8.96	939.637485696	947.270000000	-2.24	946.543578460	 98.000	 0.022
1655862363.9696801	3.95700	951.240000000	-8.96	939.621969666	947.270000000	-2.24	946.547457381	 98.000	 -0.917
1655862365.1625061	3.94400	951.085000000	-8.96	939.484376270	946.965000000	-2.24	946.242690024	 98.000	 0.705
1655862366.8629730	3.94200	951.085000000	-8.96	939.468862768	946.815000000	-2.24	946.092804438	 98.000	 -0.295
1655862368.0687621	3.93500	950.935000000	-8.96	939.320694803	946.815000000	-2.24	946.092804438	 98.000	 -1.143
1655862369.7735741	3.92000	950.780000000	-8.96	939.167587905	946.505000000	-2.24	945.783040895	 98.000	 -0.874
1655862370.9723871	3.90700	950.475000000	-8.96	938.866313042	946.355000000	-2.24	945.633155309	 98.000	 -1.178
1655862372.6678650	3.90600	950.320000000	-8.96	938.713206145	946.355000000	-2.24	945.629280135	 98.000	 -0.926
1655862373.8716490	3.89600	950.170000000	-8.96	938.580536756	946.050000000	-2.24	945.328387952	 98.000	 1.501
1655862376.0727940	3.89300	950.170000000	-8.96	938.580536756	946.050000000	-2.24	945.328387952	 98.000	 0.390
1655862377.2732401	3.87600	949.865000000	-8.96	938.279256918	945.590000000	-2.24	944.864866782	 98.000	 1.190
1655862378.9697220	3.87500	949.865000000	-8.96	938.263763316	945.590000000	-2.24	944.868738823	 98.000	 0.228
1655862380.1698761	3.86900	949.710000000	-8.96	938.126147492	945.590000000	-2.24	944.864866782	 98.000	 -0.779
1655862381.8713520	3.86300	949.710000000	-8.96	938.126147492	945.440000000	-2.24	944.718853237	 98.000	 -0.690
1655862383.0747869	3.85900	949.405000000	-8.96	937.824867654	945.285000000	-2.24	944.560100673	 98.000	 1.224
1655862384.7796021	3.84600	949.255000000	-8.96	937.676697242	945.135000000	-2.24	944.410215702	 98.000	 1.164
1655862385.9770570	3.83700	949.100000000	-8.96	937.523587816	944.830000000	-2.25	944.101570311	 98.000	 -0.962
1655862387.6705420	3.82800	948.950000000	-8.96	937.375417404	944.675000000	-2.24	943.954436751	 98.000	 1.674
1655862388.8746800	3.82500	948.950000000	-8.96	937.375417404	944.675000000	-2.24	943.950568457	 98.000	 1.047
1655862390.5728121	3.81800	948.795000000	-8.96	937.222307978	944.525000000	-2.24	943.804551166	 98.000	 -0.988
1655862391.7719641	3.80000	948.340000000	-8.96	936.772857727	944.065000000	-2.24	943.341036240	 98.000	 -0.732
1655862393.9681220	3.80200	948.340000000	-8.96	936.772857727	944.370000000	-2.23	943.653526091	 98.000	 -0.736
1655862395.1679280	3.78800	948.035000000	-8.96	936.471577889	943.915000000	-2.24	943.195016451	 98.000	 -0.889
1655862396.8730280	3.78300	948.035000000	-8.96	936.471577889	943.760000000	-2.24	943.040134679	 98.000	 1.206
1655862398.0688429	3.78100	948.035000000	-8.96	936.471577889	943.760000000	-2.24	943.040134679	 98.000	 1.169
1655862399.7742989	3.76900	947.730000000	-8.96	936.170298051	943.455000000	-2.24	942.735367322	 98.000	 0.484
1655862400.9731050	3.76600	947.575000000	-8.95	936.032634609	943.455000000	-2.24	942.735367322	 98.000	 1.061
1655862402.6735771	3.76000	947.425000000	-8.96	935.869018213	943.150000000	-2.24	942.430599965	 98.000	 0.356
1655862403.8707330	3.74900	947.270000000	-8.96	935.715908787	943.000000000	-2.24	942.280714379	 98.000	 -0.701
1655862405.5708580	3.74700	947.270000000	-8.96	935.715908787	943.000000000	-2.24	942.276852944	 98.000	 1.138
1655862406.7730119	3.73500	946.965000000	-8.95	935.430064990	942.695000000	-2.24	941.975947022	 98.000	 0.836
1655862408.9731500	3.72800	946.815000000	-8.96	935.266458537	942.540000000	-2.24	941.821065250	 98.000	 -0.862
1655862410.1716020	3.71700	946.505000000	-8.95	934.975668228	942.235000000	-2.24	941.516297893	 98.000	 0.607
1655862411.8730681	3.71300	946.355000000	-8.95	934.827495371	942.235000000	-2.24	941.516297893	 98.000	 -0.631
1655862413.0758641	3.70700	946.200000000	-8.95	934.674383418	942.080000000	-2.24	941.361416122	 98.000	 0.293
1655862414.7763350	3.69600	946.050000000	-8.95	934.526210561	941.930000000	-2.24	941.211530536	 98.000	 -1.357
1655862415.9735019	3.67800	945.590000000	-8.95	934.071813799	941.625000000	-2.24	940.906763179	 98.000	 -1.073
1655862417.6786039	3.68200	945.745000000	-8.96	934.209509597	941.625000000	-2.24	940.906763179	 98.000	 -0.865
1655862418.8734181	3.66800	945.440000000	-8.95	933.923640941	941.165000000	-2.23	940.450957658	 98.000	 1.422
1655862421.0755551	3.66500	945.285000000	-8.95	933.770528989	941.165000000	-2.24	940.447114050	 98.000	 0.585
1655862422.2813430	3.65900	945.135000000	-8.95	933.622356132	941.015000000	-2.23	940.301071460	 98.000	 1.086
1655862423.9781840	3.64800	944.980000000	-8.95	933.469244179	940.860000000	-2.24	940.142346693	 98.000	 1.537
1655862425.1766310	3.63600	944.675000000	-8.95	933.167959370	940.405000000	-2.23	939.691534254	 98.000	 1.490
1655862426.8850780	3.63700	944.675000000	-8.95	933.167959370	940.405000000	-2.23	939.691534254	 98.000	 1.145
1655862428.0798950	3.62100	944.370000000	-8.95	932.866674560	940.100000000	-2.23	939.386765652	 98.000	 1.236
1655862429.7877009	3.62100	944.220000000	-8.95	932.718501703	939.945000000	-2.23	939.231883247	 98.000	 -0.733
1655862430.9904981	3.61300	944.065000000	-8.95	932.565389750	939.945000000	-2.23	939.231883247	 98.000	 1.163
1655862432.6826341	3.59900	943.760000000	-8.95	932.264104940	939.490000000	-2.23	938.777228446	 98.000	 -0.286
1655862433.8837790	3.58900	943.455000000	-8.95	931.962820131	939.335000000	-2.23	938.622346041	 98.000	 1.462
1655862436.0845730	3.58500	943.455000000	-8.95	931.978188736	939.185000000	-2.23	938.472459843	 98.000	 -0.405
1655862437.2887089	3.58200	943.150000000	-8.95	931.661535321	939.030000000	-2.23	938.317577438	 98.000	 -1.006
1655862438.9838481	3.57600	943.150000000	-8.95	931.661535321	939.030000000	-2.23	938.321402038	 98.000	 0.218
1655862440.1816609	3.56600	942.845000000	-8.95	931.360250511	938.575000000	-2.24	937.859089606	 98.000	 0.641
1655862441.8784831	3.55300	942.540000000	-8.95	931.058965702	938.420000000	-2.23	937.708040233	 98.000	 0.043
1655862443.0792999	3.54800	942.390000000	-8.95	930.910792844	938.270000000	-2.23	937.558154035	 98.000	 1.230
1655862444.7845919	3.54700	942.235000000	-8.95	930.773029624	938.115000000	-2.23	937.403271630	 98.000	 0.325
1655862445.9815619	3.53800	942.080000000	-8.95	930.619915147	937.965000000	-2.23	937.253385432	 98.000	 -0.805
1655862447.6929960	3.52900	941.930000000	-8.95	930.471739846	937.655000000	-2.23	936.943620622	 98.000	 -1.025
1655862448.8804841	3.52300	941.625000000	-8.95	930.155111273	937.505000000	-2.23	936.793734424	 98.000	 -1.082
1655862450.5873010	3.51400	941.470000000	-8.95	930.017335591	937.350000000	-2.23	936.638852019	 98.000	 -0.056
1655862451.7860961	3.50700	941.165000000	-8.95	929.716045813	937.045000000	-2.23	936.334083417	 98.000	 -0.120
1655862453.9832520	3.49200	940.860000000	-8.95	929.414756034	936.740000000	-2.23	936.029314814	 98.000	 -0.127
1655862455.1816981	3.48600	940.710000000	-8.95	929.266580734	936.435000000	-2.23	935.728360241	 98.000	 1.558
1655862456.8855140	3.48000	940.405000000	-8.95	928.965290956	936.285000000	-2.23	935.574660013	 98.000	 0.540
1655862458.0853181	3.48100	940.405000000	-8.95	928.965290956	936.285000000	-2.23	935.578473432	 98.000	 1.098
1655862459.7887809	3.47300	940.250000000	-8.95	928.812176478	936.130000000	-2.23	935.423590396	 98.000	 -1.109
1655862460.9835880	3.45800	939.945000000	-8.95	928.510886700	935.675000000	-2.23	934.965122807	 98.000	 0.478
1655862462.6847110	3.45500	939.795000000	-8.95	928.362711400	935.520000000	-2.23	934.810240402	 98.000	 -1.064
1655862463.8875051	3.44700	939.490000000	-8.95	928.046117605	935.370000000	-2.23	934.664163897	 98.000	 1.187
1655862466.0899999	3.43700	939.185000000	-8.95	927.760131843	935.215000000	-2.23	934.505471800	 98.000	 -0.577
1655862467.2907970	3.43600	939.030000000	-8.94	927.622303717	934.760000000	-2.23	934.054624207	 98.000	 0.190
1655862468.9909110	3.42500	938.880000000	-8.95	927.458842065	934.605000000	-2.23	933.899741171	 98.000	 -0.993
1655862470.1937051	3.41200	938.420000000	-8.95	927.004437810	934.300000000	-2.23	933.591165991	 98.000	 0.973
1655862471.8871989	3.40700	938.420000000	-8.95	927.004437810	934.150000000	-2.23	933.445084517	 98.000	 -1.222
1655862473.0879979	3.40500	938.270000000	-8.94	926.871536489	933.995000000	-2.23	933.290201481	 98.000	 1.149
1655862474.7874689	3.39300	937.655000000	-8.95	926.248743776	933.535000000	-2.23	932.830548600	 98.000	 1.265
1655862475.9866209	3.39000	937.655000000	-8.95	926.248743776	933.535000000	-2.23	932.826746381	 98.000	 -0.225
1655862477.6877439	3.37800	937.350000000	-8.95	925.947453998	933.080000000	-2.22	932.379682086	 98.000	 0.536
1655862478.8895390	3.36800	937.200000000	-8.94	925.814535259	932.925000000	-2.23	932.221008909	 98.000	 0.579
1655862481.0896800	3.36500	937.045000000	-8.94	925.661418258	932.620000000	-2.23	931.916239064	 98.000	 -0.948
1655862482.2924759	3.35400	936.590000000	-8.94	925.211945772	932.315000000	-2.22	931.615256253	 98.000	 0.089
1655862483.9903131	3.34700	936.435000000	-8.95	925.043584664	932.165000000	-2.23	931.461582410	 98.000	 0.411
1655862485.1891150	3.33700	936.130000000	-8.94	924.757534029	931.860000000	-2.22	931.160597750	 98.000	 1.326
1655862486.8912270	3.33000	935.825000000	-8.95	924.441005108	931.555000000	-2.23	930.852042720	 98.000	 1.201
1655862488.0903859	3.32700	935.520000000	-8.94	924.154944542	931.400000000	-2.22	930.700943001	 98.000	 1.545
1655862489.7948520	3.33000	935.675000000	-8.94	924.308061543	931.400000000	-2.23	930.697159684	 98.000	 0.442
1655862490.9883139	3.31100	935.065000000	-8.94	923.705472057	930.945000000	-2.22	930.246284499	 98.000	 0.069
1655862492.6907761	3.30100	934.760000000	-8.95	923.388960473	930.485000000	-2.22	929.786629749	 98.000	 -0.717
1655862493.8909330	3.29900	934.605000000	-8.94	923.251060313	930.335000000	-2.22	929.636742331	 98.000	 1.216
1655862495.5894239	3.28800	934.300000000	-8.94	922.949765570	930.030000000	-2.22	929.331971247	 98.000	 1.290
1655862496.7978361	3.28200	933.995000000	-8.94	922.648470827	929.875000000	-2.21	929.180854514	 98.000	 1.309
1655862498.9919910	3.27000	933.690000000	-8.93	922.362365391	929.420000000	-2.22	928.722429079	 98.000	 0.907
1655862500.1907971	3.26300	933.385000000	-8.93	922.061065686	929.265000000	-2.23	928.563770768	 98.000	 -1.165
1655862501.8936279	3.25400	932.925000000	-8.93	921.606646459	928.805000000	-2.22	928.107890663	 98.000	 -0.283
1655862503.0924211	3.25000	932.925000000	-8.93	921.606646459	928.655000000	-2.21	927.961765236	 98.000	 -1.089
1655862504.7948880	3.24700	932.775000000	-8.93	921.458466276	928.655000000	-2.21	927.961765236	 98.000	 1.343
1655862505.9886949	3.24100	932.315000000	-8.93	921.004047049	928.195000000	-2.22	927.498348495	 98.000	 -0.583
1655862507.6901660	3.22800	932.165000000	-8.93	920.855866867	927.890000000	-2.22	927.193577412	 98.000	 -0.660
1655862508.8909810	3.22000	931.860000000	-8.93	920.554567162	927.585000000	-2.22	926.888806328	 98.000	 -1.125
1655862511.0921180	3.21200	931.400000000	-8.93	920.100147935	927.280000000	-2.22	926.584035244	 98.000	 0.807
1655862512.2948949	3.20300	931.095000000	-8.93	919.798848230	926.825000000	-2.21	926.133131318	 98.000	 0.004
1655862513.9900401	3.19200	930.790000000	-8.93	919.497548525	926.520000000	-2.21	925.832102188	 98.000	 -1.167
1655862515.1961689	3.18400	930.335000000	-8.93	919.048068637	926.215000000	-2.21	925.523586679	 98.000	 0.056
1655862516.8913071	3.18200	930.180000000	-8.93	918.894949115	926.060000000	-2.21	925.368702386	 98.000	 0.491
1655862518.0951030	3.18100	930.030000000	-8.93	918.746768933	925.910000000	-2.22	925.215063489	 98.000	 1.246
1655862519.7979200	3.16500	929.420000000	-8.93	918.144169523	925.300000000	-2.21	924.609269721	 98.000	 1.082
1655862520.9973681	3.16000	929.265000000	-8.93	918.006157255	924.995000000	-2.21	924.308234429	 98.000	 1.486
1655862522.6961889	3.15800	929.110000000	-8.93	917.853035213	924.840000000	-2.22	924.145866572	 98.000	 -1.238
1655862523.8966460	3.13600	928.195000000	-8.93	916.949121223	924.075000000	-2.21	923.385184175	 98.000	 0.963
1655862526.0971379	3.13200	928.195000000	-8.93	916.949121223	923.925000000	-2.21	923.235296149	 98.000	 0.890
1655862527.3035700	3.13200	928.045000000	-8.93	916.800938602	923.925000000	-2.21	923.239028854	 98.000	 0.837
1655862528.9970579	3.12000	927.585000000	-8.93	916.346511896	923.465000000	-2.21	922.775639536	 98.000	 -0.967
1655862530.1992180	3.10900	927.130000000	-8.93	915.897024612	922.855000000	-2.21	922.166094897	 98.000	 0.115
1655862531.8973320	3.11000	927.130000000	-8.93	915.897024612	922.855000000	-2.21	922.166094897	 98.000	 1.586
1655862533.0971341	3.09500	926.520000000	-8.93	915.294415285	922.400000000	-2.21	921.715161095	 98.000	 0.155
1655862534.8019390	3.09500	926.365000000	-8.93	915.141293243	922.095000000	-2.21	921.410387543	 98.000	 -0.894
1655862535.9974101	3.08100	925.755000000	-8.93	914.538683917	921.635000000	-2.21	920.950729072	 98.000	 -0.338
1655862537.6958830	3.08000	925.755000000	-8.93	914.538683917	921.485000000	-2.21	920.797117593	 98.000	 -1.184
1655862538.8996789	3.07100	925.300000000	-8.93	914.089196632	921.025000000	-2.21	920.341181969	 98.000	 0.659
1655862540.5985301	3.06700	924.995000000	-8.92	913.802919784	920.875000000	-2.21	920.191293336	 98.000	 1.052
1655862541.8039420	3.05100	924.380000000	-8.92	913.195361045	920.260000000	-2.21	919.576749945	 98.000	 0.362
1655862543.9990940	3.04100	923.925000000	-8.92	912.745866368	919.805000000	-2.21	919.118371702	 98.000	 0.471
1655862545.1979010	3.04000	923.620000000	-8.93	912.429551273	919.650000000	-2.21	918.967202842	 98.000	 1.111
1655862546.8963749	3.03000	923.315000000	-8.92	912.143247131	919.195000000	-2.21	918.512540658	 98.000	 -0.212
1655862548.1025250	3.02800	923.160000000	-8.92	911.990122571	919.040000000	-2.21	918.357655738	 98.000	 -1.044
1655862549.8056221	3.01600	922.550000000	-8.92	911.387503334	918.280000000	-2.20	917.601919839	 98.000	 1.183
1655862551.0017769	3.01600	922.705000000	-8.92	911.540627894	918.430000000	-2.21	917.748108635	 98.000	 0.431
1655862552.7088900	2.99400	921.635000000	-8.92	910.483574479	917.365000000	-2.20	916.687595497	 98.000	 -0.432
1655862553.9020619	2.98800	921.180000000	-8.92	910.034079802	916.905000000	-2.21	916.224240876	 98.000	 -0.986
1655862555.5985470	2.98300	920.875000000	-8.92	909.747721088	916.600000000	-2.20	915.923160392	 98.000	 0.740
1655862556.8039811	2.97600	920.415000000	-8.92	909.278336005	916.295000000	-2.20	915.618385611	 98.000	 0.741
1655862558.9984920	2.96500	919.805000000	-8.92	908.690650300	915.685000000	-2.20	915.008836050	 98.000	 -1.125
1655862560.2009330	2.96100	919.500000000	-8.92	908.389335730	915.530000000	-2.20	914.853950505	 98.000	 -0.790
1655862561.8987620	2.95300	919.040000000	-8.92	907.934894083	915.075000000	-2.20	914.399286488	 98.000	 0.545
1655862563.0995619	2.94700	918.735000000	-8.92	907.618663352	914.770000000	-2.20	914.098187378	 98.000	 -0.997
1655862564.8119969	2.94000	918.280000000	-8.92	907.169168676	914.310000000	-2.19	913.642189007	 98.000	 -0.040
1655862566.0026710	2.92800	917.670000000	-8.92	906.581448308	913.700000000	-2.20	913.025301822	 98.000	 1.098
1655862567.7033000	2.92700	917.515000000	-8.91	906.443207644	913.395000000	-2.20	912.720527041	 98.000	 1.223
1655862568.9050930	2.91200	916.755000000	-8.92	905.677504597	912.635000000	-2.20	911.964755335	 98.000	 -0.435
1655862571.1018889	2.90900	916.600000000	-8.91	905.539249087	912.330000000	-2.20	911.659979329	 98.000	 0.779
1655862572.3040321	2.90100	915.990000000	-8.91	904.936610049	911.870000000	-2.20	911.200317155	 98.000	 0.311
1655862574.0041561	2.88800	915.380000000	-8.91	904.333971012	911.260000000	-2.20	910.587103577	 98.000	 -0.249
1655862575.2069540	2.87800	914.770000000	-8.91	903.731331974	910.650000000	-2.20	909.981213131	 98.000	 1.214
1655862576.9107690	2.88500	914.920000000	-8.91	903.879521901	910.800000000	-2.20	910.131102970	 98.000	 -0.808
1655862578.1072249	2.86800	914.005000000	-8.91	902.975563345	909.885000000	-2.19	909.220421022	 98.000	 -1.157
1655862579.8160269	2.86700	913.700000000	-8.91	902.674243826	909.735000000	-2.20	909.066885112	 98.000	 -0.232
1655862581.0144839	2.85200	913.090000000	-8.91	902.071604788	908.970000000	-2.19	908.306089337	 98.000	 0.925
1655862582.7143061	2.85000	912.785000000	-8.90	901.785085050	908.665000000	-2.20	907.997670927	 98.000	 -1.145
1655862583.9107649	2.83700	911.870000000	-8.91	900.866326713	907.905000000	-2.19	907.241867212	 98.000	 -0.884
1655862586.1089089	2.83200	911.715000000	-8.90	900.727979553	907.600000000	-2.20	906.933453069	 98.000	 -0.131
1655862587.3107090	2.82100	910.800000000	-8.91	899.809238565	906.680000000	-2.20	906.014128723	 98.000	 1.203
1655862589.0071850	2.81800	910.800000000	-8.90	899.824006161	906.680000000	-2.19	906.017761950	 98.000	 -0.420
1655862590.2083421	2.80500	909.735000000	-8.90	898.771840409	905.765000000	-2.19	905.103430265	 98.000	 -1.066
1655862591.9098139	2.79900	909.580000000	-8.90	898.618708304	905.460000000	-2.19	904.798653037	 98.000	 -0.501
1655862593.1106081	2.78900	908.665000000	-8.90	897.714734912	904.700000000	-2.19	904.039208140	 98.000	 -0.896
1655862594.8127201	2.79300	908.665000000	-8.90	897.714734912	904.700000000	-2.19	904.039208140	 98.000	 -1.137
1655862596.0105290	2.78100	907.905000000	-8.90	896.978604445	903.935000000	-2.19	903.274766895	 98.000	 0.196
1655862597.7109981	2.77900	907.445000000	-8.90	896.509437056	903.325000000	-2.19	902.665212439	 98.000	 1.409
1655862598.9108040	2.76600	906.680000000	-8.90	895.753656023	902.715000000	-2.18	902.059265429	 98.000	 0.240
1655862600.6086330	2.76200	906.530000000	-8.90	895.620152205	902.410000000	-2.18	901.754486982	 98.000	 1.192
1655862601.8134229	2.75500	905.615000000	-8.90	894.716163987	901.495000000	-2.18	900.840151640	 98.000	 -1.061
1655862604.0132079	2.74400	905.005000000	-8.90	894.113505175	900.885000000	-2.18	900.230594746	 98.000	 -1.034
1655862605.2100201	2.73800	904.395000000	-8.90	893.510846363	900.275000000	-2.18	899.621037851	 98.000	 1.512
1655862606.9114850	2.72800	903.325000000	-8.90	892.453723529	899.360000000	-2.18	898.706702510	 98.000	 -1.164
1655862608.1136611	2.72400	903.020000000	-8.90	892.152394123	899.055000000	-2.18	898.401924063	 98.000	 1.362
1655862609.8151169	2.71700	902.715000000	-8.89	891.865681663	898.595000000	-2.18	897.945839343	 98.000	 -0.335
1655862611.0119171	2.70900	901.800000000	-8.89	890.961678630	897.830000000	-2.17	897.184960241	 98.000	 -0.714
1655862612.7130311	2.70000	901.340000000	-8.90	890.492612477	897.375000000	-2.18	896.723144419	 98.000	 1.258
1655862613.9241660	2.68500	899.970000000	-8.89	889.168235310	895.850000000	-2.18	895.202822379	 98.000	 -0.602
1655862616.1189580	2.68800	899.815000000	-8.89	889.000535436	895.695000000	-2.17	895.051494117	 98.000	 0.801
1655862617.3221140	2.67400	898.745000000	-8.89	887.943395276	894.630000000	-2.18	893.983703728	 98.000	 0.045
1655862619.0172350	2.67600	898.595000000	-8.89	887.809738556	894.630000000	-2.18	893.983703728	 98.000	 -1.118
1655862620.2140510	2.66300	897.525000000	-8.89	886.752581082	893.710000000	-2.17	893.067920226	 98.000	 -1.065
1655862621.9198630	2.65600	897.220000000	-8.89	886.451241802	893.100000000	-2.17	892.458358477	 98.000	 -1.111
1655862623.1176579	2.64600	896.305000000	-8.89	885.547223963	892.340000000	-2.17	891.702441144	 98.000	 0.287
1655862624.8261139	2.63900	895.545000000	-8.89	884.796345757	891.425000000	-2.17	890.784561869	 98.000	 1.278
1655862626.0345390	2.63300	894.780000000	-8.88	884.054996635	890.660000000	-2.17	890.023641470	 98.000	 0.319
1655862628.2280540	2.61500	893.405000000	-8.88	882.696477647	889.440000000	-2.17	888.804513135	 98.000	 1.395
1655862629.4208679	2.61700	893.405000000	-8.89	882.682030809	889.440000000	-2.17	888.804513135	 98.000	 -0.578
1655862631.1160040	2.60500	892.490000000	-8.88	881.792445011	888.525000000	-2.17	887.890166884	 98.000	 1.118
1655862632.3257821	2.59200	890.965000000	-8.88	880.285723951	887.000000000	-2.17	886.366256466	 98.000	 0.728
1655862634.0166380	2.59500	891.270000000	-8.89	880.572655849	887.305000000	-2.17	886.671038550	 98.000	 0.958
1655862635.2150829	2.58500	890.205000000	-8.88	879.534833456	886.235000000	-2.17	885.598290588	 98.000	 0.838
1655862636.9139321	2.57400	888.675000000	-8.87	878.037533050	884.555000000	-2.16	883.926499472	 98.000	 -0.867
1655862638.1177020	2.56700	887.915000000	-8.87	877.286630273	883.945000000	-2.16	883.316932893	 98.000	 0.266
1655862639.8271570	2.56400	887.455000000	-8.87	876.832136487	883.335000000	-2.16	882.707366315	 98.000	 -0.405
1655862641.0176270	2.55000	886.235000000	-8.87	875.626739924	882.270000000	-2.16	881.643123027	 98.000	 -1.058
1655862642.7151029	2.54800	885.625000000	-8.87	875.038343483	881.660000000	-2.15	881.037031447	 98.000	 -1.108
1655862643.9152601	2.53800	884.405000000	-8.87	873.818645080	880.435000000	-2.17	879.805947025	 98.000	 0.085
1655862645.6157310	2.53400	883.945000000	-8.87	873.364151294	879.825000000	-2.15	879.203328032	 98.000	 -1.154
1655862646.8195231	2.52800	882.575000000	-8.87	872.024802822	878.455000000	-2.15	877.834296055	 98.000	 -1.169
1655862649.0183060	2.52600	882.880000000	-8.87	872.326156888	878.760000000	-2.15	878.139080546	 98.000	 -0.712
1655862650.2174680	2.50900	880.130000000	-8.87	869.609030063	876.165000000	-2.15	875.545914137	 98.000	 1.423
1655862651.9189451	2.50800	880.285000000	-8.86	869.776383278	876.165000000	-2.15	875.549357876	 98.000	 0.039
1655862653.1157370	2.50400	879.520000000	-8.86	869.020515652	875.400000000	-2.15	874.784895408	 98.000	 1.500
1655862654.8248429	2.48700	877.540000000	-8.86	867.078304644	873.570000000	-2.14	872.959605234	 98.000	 0.745
1655862656.0219951	2.48400	876.925000000	-8.86	866.456494097	872.960000000	-2.14	872.353443472	 98.000	 -0.383
1655862657.7191291	2.47900	876.315000000	-8.86	865.853776121	872.350000000	-2.14	871.743867317	 98.000	 0.318
1655862658.9169371	2.46300	874.335000000	-8.86	863.911513425	870.365000000	-2.14	869.760246550	 98.000	 0.186
1655862661.1180739	2.45700	873.265000000	-8.86	862.854269555	869.300000000	-2.14	868.695986541	 98.000	 1.370
1655862662.3222060	2.44900	872.350000000	-8.86	861.950177834	868.380000000	-2.14	867.776625782	 98.000	 -0.698
1655862664.0177159	2.44100	871.280000000	-8.85	860.906975826	867.160000000	-2.14	866.554084131	 98.000	 0.743
1655862665.2214880	2.43100	869.910000000	-8.86	859.539266578	865.940000000	-2.14	865.338321161	 98.000	 -0.680
1655862666.9209721	2.42800	868.840000000	-8.85	858.496025247	865.025000000	-2.14	864.423956928	 98.000	 -0.450
1655862668.1217599	2.41600	867.620000000	-8.84	857.304523432	863.500000000	-2.14	862.900016540	 98.000	 1.568
1655862669.8222401	2.40900	866.400000000	-8.84	856.099028494	862.430000000	-2.13	861.834121406	 98.000	 1.472
1655862671.0197010	2.40500	865.180000000	-8.84	854.907458358	861.210000000	-2.14	860.611607694	 98.000	 -0.975
1655862672.7201641	2.40100	864.720000000	-8.84	854.439002677	860.755000000	-2.14	860.156923841	 98.000	 -0.804
1655862673.9193270	2.38400	861.210000000	-8.84	850.984595359	857.245000000	-2.13	856.652703877	 98.000	 -1.171
1655862676.1181121	2.38600	861.820000000	-8.84	851.587352646	858.005000000	-2.12	857.415513523	 98.000	 -1.017
1655862677.3238990	2.37600	859.840000000	-8.83	849.644691320	855.870000000	-2.12	855.281980360	 98.000	 0.776
1655862679.0227351	2.36900	858.465000000	-8.84	848.272187567	854.800000000	-2.12	854.216028424	 98.000	 1.219
1655862680.2261651	2.35900	856.330000000	-8.83	846.176310148	852.515000000	-2.12	851.932589462	 98.000	 -1.159
1655862681.9239991	2.35100	854.955000000	-8.83	844.831355527	850.985000000	-2.12	850.403634708	 98.000	 -0.067
1655862683.1324251	2.34200	853.275000000	-8.83	843.157533944	849.310000000	-2.12	848.729779013	 98.000	 -0.267
1655862684.8292561	2.33800	851.905000000	-8.83	841.817471013	848.240000000	-2.12	847.660510003	 98.000	 -1.023
1655862686.0197330	2.32600	849.920000000	-8.82	839.869627250	846.105000000	-2.11	845.530238522	 98.000	 1.287
1655862687.7225511	2.31600	847.785000000	-8.82	837.759873798	844.120000000	-2.11	843.549839972	 98.000	 -0.828
1655862688.9253459	2.32200	847.935000000	-8.82	837.908100036	844.120000000	-2.11	843.549839972	 98.000	 -1.134
1655862690.6218269	2.30600	845.190000000	-8.81	835.209126318	841.375000000	-2.11	840.806694080	 98.000	 -0.712
1655862691.8286121	2.29300	842.135000000	-8.81	832.203711176	838.170000000	-2.09	837.610291547	 98.000	 1.047
1655862694.0224121	2.29600	841.830000000	-8.81	831.888804657	838.170000000	-2.10	837.607079813	 98.000	 1.416
1655862695.2235701	2.28700	839.545000000	-8.81	829.644255017	835.880000000	-2.09	835.325014549	 98.000	 -0.672
1655862696.9256780	2.28000	838.325000000	-8.81	828.438642464	834.510000000	-2.09	833.952735602	 98.000	 -0.695
1655862698.1244881	2.26900	835.270000000	-8.80	825.433059148	831.455000000	-2.09	830.902952544	 98.000	 -1.238
1655862699.8283000	2.26000	833.590000000	-8.80	823.772844440	829.780000000	-2.09	829.229064666	 98.000	 0.739
1655862701.0251091	2.25100	830.695000000	-8.80	820.925245502	826.880000000	-2.08	826.334140480	 98.000	 0.920
1655862702.7232311	2.25000	829.930000000	-8.80	820.169242621	826.115000000	-2.08	825.569645490	 98.000	 1.144
1655862703.9273810	2.24900	827.945000000	-8.79	818.220841828	824.435000000	-2.08	823.890754531	 98.000	 0.044
1655862705.6294899	2.24000	825.505000000	-8.79	815.809499464	821.845000000	-2.08	821.302464303	 98.000	 1.310
1655862706.8362720	2.22400	821.845000000	-8.79	812.192485917	817.875000000	-2.08	817.338192151	 98.000	 0.810
1655862709.0295811	2.21200	818.030000000	-8.78	808.448456280	814.215000000	-2.07	813.683678622	 98.000	 -0.158
1655862710.2282360	2.20300	814.670000000	-8.77	805.140826536	810.855000000	-2.06	810.331987599	 98.000	 -0.220
1655862711.9300580	2.20100	814.215000000	-8.77	804.691148659	810.400000000	-2.06	809.877281080	 98.000	 -0.212
1655862713.1275110	2.19700	811.160000000	-8.77	801.671882913	807.500000000	-2.06	806.979151619	 98.000	 -0.605
1655862714.8383160	2.18700	806.890000000	-8.76	797.477583670	802.920000000	-2.05	802.405120848	 98.000	 -0.743
1655862716.0321381	2.18100	805.820000000	-8.76	796.420065279	802.160000000	-2.05	801.648611627	 98.000	 -0.179
1655862717.7302499	2.17600	801.855000000	-8.75	792.514101172	798.190000000	-2.03	797.687093431	 98.000	 0.635
1655862718.9290569	2.16400	796.210000000	-8.75	786.934860410	792.240000000	-2.03	791.740842280	 98.000	 -1.030
1655862721.1325309	2.15700	791.020000000	-8.74	781.830515995	787.360000000	-2.03	786.863916967	 98.000	 1.343
1655862722.3359799	2.15200	788.730000000	-8.74	779.579668569	785.375000000	-2.02	784.885988536	 98.000	 0.339
1655862724.0318210	2.14100	785.375000000	-8.74	776.263591093	781.715000000	-2.02	781.228267424	 98.000	 1.093
1655862725.2316380	2.13600	777.745000000	-8.72	768.746832640	774.085000000	-2.00	773.611560433	 98.000	 -1.047
1655862726.9327350	2.12900	773.930000000	-8.72	764.988258922	769.965000000	-2.01	769.491256463	 98.000	 -0.985
1655862728.1315410	2.11900	768.130000000	-8.71	759.279637935	764.625000000	-2.00	764.160142127	 98.000	 -0.816
1655862729.8369999	2.11600	764.010000000	-8.70	755.219214461	760.350000000	-1.99	759.890513018	 98.000	 0.959
1655862731.0321679	2.10600	755.160000000	-8.69	746.494950653	751.500000000	-1.98	751.051315689	 98.000	 -1.235
1655862732.7326529	2.10100	754.095000000	-8.69	745.442170948	750.280000000	-1.97	749.834754594	 98.000	 1.445
1655862733.9350750	2.09200	742.495000000	-8.68	733.998748567	738.835000000	-1.96	738.401860523	 98.000	 0.895
1655862735.6309209	2.08900	735.630000000	-8.66	727.247129210	731.970000000	-1.95	731.546117660	 98.000	 1.410
1655862736.8376980	2.07500	722.965000000	-8.64	714.760608634	719.610000000	-1.93	719.200932456	 98.000	 -0.924
1655862739.0374849	2.06500	714.115000000	-8.63	706.033493533	710.455000000	-1.92	710.056137570	 98.000	 -0.228
1655862740.2392840	2.06000	701.300000000	-8.61	693.396536350	697.790000000	-1.90	697.405558181	 98.000	 0.292
1655862741.9417470	2.05500	692.295000000	-8.60	684.514712019	688.330000000	-1.88	687.957913337	 98.000	 0.109
1655862743.1395600	2.04900	681.460000000	-8.58	673.833453010	677.955000000	-1.88	677.590852023	 98.000	 -1.255
1655862744.8363919	2.03900	664.220000000	-8.56	656.827845393	661.475000000	-1.85	661.128726115	 98.000	 0.317
1655862746.0358410	2.03900	652.930000000	-8.54	645.683823513	649.725000000	-1.84	649.391448799	 98.000	 1.046
1655862747.7386601	2.02100	617.525000000	-8.49	610.757942389	614.930000000	-1.79	614.630601097	 98.000	 -0.280
1655862748.9374650	2.01700	610.050000000	-8.48	603.383706195	606.540000000	-1.78	606.246664533	 98.000	 1.138
1655862750.6429181	2.00200	574.955000000	-8.44	568.734188721	571.290000000	-1.73	571.030201931	 98.000	 -1.084
1655862751.8447211	1.98900	541.690000000	-8.38	535.903763559	537.265000000	-1.70	537.029084283	 98.000	 -0.767
1655862754.0375221	1.99800	550.080000000	-8.39	544.187336935	547.335000000	-1.70	547.094662496	 98.000	 1.451
1655862755.2413170	1.97900	487.368000000	-8.32	482.243539255	483.706000000	-1.62	483.512666412	 98.000	 -1.225
1655862756.9417989	1.98000	481.570000000	-8.31	476.513793871	479.128500000	-1.63	478.935574924	 98.000	 1.352
1655862758.1459229	1.97100	438.235000000	-8.26	433.693287981	435.183000000	-1.57	435.020462663	 98.000	 1.270
1655862759.8484130	1.95500	395.052500000	-8.20	391.017507195	393.679000000	-1.52	393.540839108	 98.000	 -1.130
1655862761.0438590	1.95300	358.431500000	-8.15	354.813230487	355.532000000	-1.48	355.414035282	 98.000	 -0.113
1655862762.7423329	1.95100	350.191500000	-8.14	346.666798545	348.055500000	-1.45	347.943740814	 98.000	 -0.011
1655862763.9431331	1.93600	300.294000000	-8.07	297.320277920	297.090000000	-1.40	297.001568790	 98.000	 -0.932
1655862766.1462619	1.93700	303.346000000	-8.08	300.333129394	301.515000000	-1.41	301.423704374	 98.000	 0.077
1655862767.3470631	1.92400	256.349000000	-8.02	253.844256390	254.823000000	-1.35	254.752268835	 98.000	 0.876
1655862769.0449200	1.92000	246.888500000	-8.01	244.479797373	245.210000000	-1.34	245.142540745	 98.000	 1.058
1655862774.3005400	1.89600	177.804000000	-7.91	176.113130670	176.736000000	-1.28	176.691622623	 98.000	 1.210
1655862775.5581901	1.89000	158.425500000	-7.87	156.932579366	157.166500000	-1.24	157.129575816	 98.000	 1.407
1655862776.7490180	1.88100	145.302500000	-7.86	143.937408621	143.929000000	-1.24	143.895511697	 98.000	 -1.048
1655862778.4484880	1.87300	131.302500000	-7.85	130.072693999	130.425000000	-1.23	130.394947602	 98.000	 1.336
1655862779.6512840	1.86400	119.591500000	-7.81	118.481618472	118.599500000	-1.22	118.572438372	 98.000	 1.008
1655862781.3487589	1.85800	110.321500000	-7.80	109.300787883	109.253500000	-1.15	109.231417389	 98.000	 -0.522
1655862782.5618820	1.85200	100.937500000	-7.78	100.007908815	99.984000000	-1.16	99.963367765	 98.000	 -1.056
1655862785.7843001	1.83600	81.749500000	-7.78	80.996622084	81.063000000	-1.14	81.046954887	 98.000	 1.135
1655862789.0057089	1.82300	69.618500000	-7.75	68.983252724	69.351500000	-1.13	69.338060449	 98.000	 0.999
1655862790.2503920	1.81100	55.866500000	-7.75	55.356735469	55.447000000	-1.12	55.436368988	 98.000	 -1.033
1655862791.4927371	1.80600	51.403500000	-7.71	50.938802060	50.907500000	-1.07	50.898656250	 98.000	 -1.145
1655862792.6869111	1.80100	45.948350000	-7.73	45.531028861	45.891100000	-1.12	45.882301168	 98.000	 1.127
1655862797.9349289	1.77600	23.756200000	-7.68	23.543104732	23.498700000	-1.14	23.494048811	 98.000	 1.330
1655862803.2165079	1.74700	10.008900000	-7.61	9.920653474	9.799100000	-0.86	9.798001304	 98.000	 -0.463
1655862806.9887719	1.73800	5.931900000	-7.58	5.880010317	5.934300000	-1.37	5.932608602	 98.000	 1.130
1655862810.2062371	1.72100	3.252050000	-7.54	3.223960918	3.268735000	-1.55	3.267542056	 98.000	 0.941
1655862815.5087581	1.69100	1.403105000	-7.12	1.392279210	1.417410000	-1.08	1.417158200	 98.000	 1.071
1655862820.8269420	1.66200	0.570420000	-8.50	0.564151485	0.610355000	0.47	0.610334639	 98.000	 1.251
1655862827.1201820	1.63400	0.290574000	-6.91	0.288462154	0.351669500	-0.03	0.351669452	 98.000	 0.403
1655862833.2259331	1.60300	0.160039500	-9.74	0.157733572	0.180305000	8.37	0.178384515	 98.000	 -1.271
1655862839.1816881	1.57600	0.096858000	-10.09	0.095361157	0.139289000	-1.43	0.139245741	 98.000	 1.611
1655862842.9041381	1.56500	0.056513000	-8.63	0.055873453	0.167676500	6.89	0.166464185	 98.000	 0.714
1655862844.0965929	1.55800	0.021774450	-38.45	0.017053157	0.078120000	14.75	0.075544240	 98.000	 -1.198
1655862849.3449819	1.53600	0.047041400	-13.12	0.045813096	0.078213000	-9.80	0.077072173	 98.000	 -0.423
1655862850.5736990	1.53100	0.044433700	-6.67	0.044133315	0.077300500	-17.27	0.073816314	 98.000	 -1.273
1655862851.7731409	1.52500	0.048652600	-1.25	0.048641059	0.107941000	-19.25	0.101903428	 98.000	 -1.145
1655862853.4776020	1.52000	0.032559200	25.13	0.029476394	0.084136500	-24.14	0.076776267	 98.000	 1.368
1655862854.6797509	1.51300	0.030202950	8.63	0.029861149	0.097547500	-23.11	0.089718270	 98.000	 1.411
1655862856.3778760	1.51000	0.040727050	-22.66	0.037584313	0.122339000	15.07	0.118133847	 98.000	 1.554
1655862857.5866530	1.50700	0.043455800	7.37	0.043096983	0.089612500	-5.40	0.089214797	 98.000	 -0.999
1655862858.7788310	1.50300	0.023245950	-28.22	0.020483284	0.098739500	-21.86	0.091641060	 98.000	 1.004
1655862862.0042281	1.49600	0.035930550	11.29	0.035235007	0.095889500	-23.94	0.087640212	 98.000	 1.037
1655862863.1957071	1.49400	0.028731450	1.61	0.028720136	0.071190500	-10.01	0.070105934	 98.000	 -0.886
1655862864.8885529	1.49200	0.020242450	-12.86	0.019734862	0.059307000	18.55	0.056227105	 98.000	 -0.930
1655862866.0880010	1.49100	0.016908250	-17.31	0.016142456	0.107810500	3.77	0.107576706	 98.000	 1.358
1655862867.7818470	1.49000	0.031618550	11.69	0.030962277	0.086204000	-8.96	0.085151142	 98.000	 -0.385
1655862868.9806499	1.48800	0.001392335	-151.10	-0.001218987	0.052229000	31.64	0.044463816	 98.000	 0.591
1655862873.2130210	1.48500	0.028482300	-3.19	0.028438111	0.100695000	-6.48	0.100051691	 98.000	 0.031
1655862874.4052131	1.48500	0.008454100	-18.44	0.008019841	0.070129000	-10.68	0.068914194	 98.000	 -0.593
1655862875.5986609	1.48400	0.017960650	-3.13	0.017933925	0.073090500	-2.66	0.073011509	 98.000	 1.043
1655862876.7938311	1.48200	0.022070150	-10.90	0.021672267	0.048447700	18.05	0.046063942	 98.000	 0.942
1655862880.0198841	1.47900	0.019103900	-17.48	0.018221918	0.061197500	17.90	0.058233885	 98.000	 -0.832
1655862881.2170360	1.47800	0.017432100	-30.49	0.015022167	0.104448500	11.38	0.102396493	 98.000	 1.360
1655862882.9085460	1.47700	0.025478800	43.41	0.018509195	0.057370000	-1.76	0.057342812	 98.000	 -0.966
1655862884.1083550	1.47500	0.024170300	20.12	0.022694708	0.073854000	20.82	0.069031457	 98.000	 -0.803
1655862885.8018320	1.47500	0.027194750	-8.67	0.026883994	0.039823650	-42.47	0.029373280	 98.000	 1.420
1655862887.0016260	1.47300	0.017304050	-12.95	0.016863668	0.065118500	28.97	0.056968244	 98.000	 0.963
1655862889.1984279	1.47200	0.017257500	-12.62	0.016840700	0.049826050	-18.56	0.047235193	 98.000	 0.586
1655862890.3935249	1.47000	0.026987550	31.38	0.023040152	0.068871500	11.23	0.067552371	 98.000	 0.511
