------------------------------------------------------------------------------------------------------------------
time (s)	 T (K)	 R1 (Ohm)	 Theta1 (deg.)	 X1 (Ohm)	 R2 (Ohm)	 Theta2 (deg.)	 X2 (Ohm)	 Vgate (V) 	 Ileak (nA)
------------------------------------------------------------------------------------------------------------------

1656051108.4826870	9.99100	54.607500000	-8.85	53.957370400	0.021843100	-2.11	0.021828346	 150.000	 1.677
1656051113.7689559	9.98900	109.215500000	-8.84	107.918751610	0.054609500	-2.11	0.054572614	 150.000	 0.496
1656051119.0744309	9.98100	273.047500000	-8.84	269.805525135	0.109219000	-2.11	0.109145228	 150.000	 0.517
1656051124.8683331	9.97000	546.095000000	-8.84	539.611050269	0.184991000	-2.11	0.184866048	 150.000	 1.423
1656051130.6675019	9.95700	928.540000000	-8.84	917.500221511	0.184968000	-2.11	0.184843064	 150.000	 1.389
1656051134.4387951	9.95000	928.350000000	-8.84	917.327422001	0.184907000	-2.09	0.184783524	 150.000	 1.110
1656051135.6286111	9.94700	928.350000000	-8.84	917.312480496	0.184937000	-2.11	0.184812084	 150.000	 0.278
1656051136.8270690	9.94100	928.350000000	-8.84	917.312480496	0.184937000	-2.11	0.184812084	 150.000	 1.379
1656051138.5345130	9.93900	928.350000000	-8.84	917.327422001	0.184907000	-2.11	0.184782105	 150.000	 1.355
1656051139.7313180	9.93400	928.195000000	-8.84	917.174262362	0.184876000	-2.10	0.184751836	 150.000	 -0.727
1656051141.4311399	9.93100	928.195000000	-8.84	917.174262362	0.184876000	-2.10	0.184751836	 150.000	 1.751
1656051142.6285870	9.92400	928.195000000	-8.84	917.174262362	0.184876000	-2.10	0.184751836	 150.000	 1.553
1656051144.3270581	9.92100	928.195000000	-8.84	917.174262362	0.184876000	-2.11	0.184750413	 150.000	 0.948
1656051145.5278530	9.91500	928.045000000	-8.84	917.026043357	0.184876000	-2.11	0.184751126	 150.000	 0.013
1656051147.7392950	9.91100	928.045000000	-8.84	917.026043357	0.184876000	-2.11	0.184751126	 150.000	 1.045
1656051149.1475520	9.90500	928.045000000	-8.84	917.026043357	0.184815000	-2.10	0.184690877	 150.000	 1.512
1656051150.8386900	9.90100	927.890000000	-8.84	916.872883719	0.184846000	-2.11	0.184721146	 150.000	 -0.177
1656051152.1655090	9.89400	927.890000000	-8.84	916.872883719	0.184815000	-2.11	0.184690167	 150.000	 -0.722
1656051153.8549981	9.89000	927.890000000	-8.84	916.872883719	0.184815000	-2.11	0.184690167	 150.000	 -0.749
1656051155.1491880	9.88500	927.740000000	-8.84	916.724664714	0.184785000	-2.10	0.184660897	 150.000	 -0.624
1656051156.3420041	9.88100	927.740000000	-8.84	916.724664714	0.184785000	-2.10	0.184660897	 150.000	 -0.359
1656051157.5391769	9.87600	927.740000000	-8.84	916.724664714	0.184785000	-2.10	0.184660897	 150.000	 1.047
1656051159.7422910	9.87200	927.740000000	-8.84	916.724664714	0.184785000	-2.10	0.184660897	 150.000	 -0.596
1656051161.2259729	9.86600	927.585000000	-8.84	916.571505075	0.184785000	-2.10	0.184660897	 150.000	 0.920
1656051162.4347470	9.86100	927.585000000	-8.84	916.571505075	0.184754000	-2.11	0.184629208	 150.000	 1.315
1656051163.6388819	9.85500	927.585000000	-8.84	916.571505075	0.184754000	-2.11	0.184629208	 150.000	 0.996
1656051165.8390329	9.85000	927.435000000	-8.84	916.423286070	0.184724000	-2.11	0.184599228	 150.000	 0.980
1656051167.2013781	9.84500	927.435000000	-8.84	916.423286070	0.184754000	-2.11	0.184628496	 150.000	 -0.532
1656051168.4370899	9.84000	927.435000000	-8.84	916.423286070	0.184724000	-2.11	0.184599228	 150.000	 0.129
1656051169.6335399	9.83300	927.280000000	-8.84	916.270126432	0.184724000	-2.11	0.184599228	 150.000	 -0.655
1656051171.8406520	9.82800	927.280000000	-8.84	916.270126432	0.184693000	-2.11	0.184568249	 150.000	 0.231
1656051173.1661179	9.82300	927.280000000	-8.84	916.270126432	0.184693000	-2.11	0.184568249	 150.000	 -0.622
1656051174.3553190	9.81900	927.280000000	-8.84	916.270126432	0.184693000	-2.11	0.184567538	 150.000	 -0.577
1656051175.5441289	9.81000	927.130000000	-8.84	916.121907427	0.184663000	-2.11	0.184538270	 150.000	 -0.531
1656051177.7472470	9.80500	927.130000000	-8.84	916.121907427	0.184632000	-2.11	0.184507290	 150.000	 0.870
1656051179.0873179	9.79700	927.130000000	-8.84	916.121907427	0.184663000	-2.11	0.184538270	 150.000	 -0.711
1656051180.8426371	9.79200	927.130000000	-8.84	916.121907427	0.184693000	-2.11	0.184567538	 150.000	 -0.015
1656051182.1710920	9.78600	926.975000000	-8.84	915.968747788	0.184632000	-2.11	0.184507290	 150.000	 -0.603
1656051183.3609180	9.78200	926.975000000	-8.84	915.968747788	0.184632000	-2.11	0.184506579	 150.000	 1.730
1656051184.5511050	9.77300	926.825000000	-8.84	915.805611823	0.184602000	-2.11	0.184477311	 150.000	 0.592
1656051186.7452531	9.76800	926.825000000	-8.84	915.820528783	0.184602000	-2.11	0.184477311	 150.000	 -0.776
1656051188.1863990	9.76100	926.825000000	-8.84	915.820528783	0.184602000	-2.10	0.184478020	 150.000	 0.644
1656051189.8778870	9.75600	926.670000000	-8.84	915.667369145	0.184571000	-2.10	0.184447041	 150.000	 -0.720
1656051191.2638330	9.75100	926.670000000	-8.84	915.667369145	0.184571000	-2.10	0.184447041	 150.000	 0.944
1656051192.4550171	9.74700	926.670000000	-8.84	915.667369145	0.184571000	-2.11	0.184446332	 150.000	 -0.026
1656051193.6534560	9.73900	926.670000000	-8.84	915.667369145	0.184541000	-2.11	0.184416352	 150.000	 1.467
1656051195.3479381	9.73400	926.520000000	-8.83	915.534052151	0.184541000	-2.10	0.184417061	 150.000	 -0.058
1656051196.5510809	9.72400	926.520000000	-8.84	915.519150140	0.184541000	-2.11	0.184416352	 150.000	 1.101
1656051198.7532139	9.71800	926.520000000	-8.84	915.519150140	0.184541000	-2.11	0.184416352	 150.000	 -0.672
1656051200.0952730	9.71200	926.365000000	-8.84	915.365990501	0.184510000	-2.11	0.184385373	 150.000	 1.652
1656051201.8429639	9.70500	926.365000000	-8.84	915.365990501	0.184510000	-2.10	0.184386082	 150.000	 -0.787
1656051203.1803861	9.69900	926.365000000	-8.84	915.365990501	0.184510000	-2.10	0.184386082	 150.000	 0.188
1656051204.3718641	9.69600	926.215000000	-8.84	915.217771496	0.184510000	-2.11	0.184385373	 150.000	 1.417
1656051205.5630460	9.68500	926.215000000	-8.84	915.217771496	0.184480000	-2.11	0.184355393	 150.000	 0.556
1656051207.7611740	9.68000	926.215000000	-8.84	915.217771496	0.184449000	-2.10	0.184325123	 150.000	 0.093
1656051209.1920011	9.67300	926.060000000	-8.84	915.064611858	0.184449000	-2.11	0.184324414	 150.000	 -0.064
1656051210.3848200	9.66800	926.060000000	-8.83	915.079506471	0.184449000	-2.11	0.184324414	 150.000	 1.579
1656051211.5756409	9.65800	925.910000000	-8.84	914.916392853	0.184419000	-2.10	0.184295143	 150.000	 -0.746
1656051213.7681551	9.65300	925.910000000	-8.84	914.916392853	0.184419000	-2.10	0.184295143	 150.000	 1.518
1656051215.1461201	9.64800	925.910000000	-8.84	914.916392853	0.184419000	-2.09	0.184295850	 150.000	 1.314
1656051216.3578839	9.64200	925.910000000	-8.84	914.916392853	0.184419000	-2.10	0.184295143	 150.000	 -0.262
1656051217.5550370	9.63100	925.755000000	-8.84	914.763233214	0.184388000	-2.10	0.184264164	 150.000	 -0.623
1656051219.7588110	9.62600	925.755000000	-8.84	914.763233214	0.184388000	-2.10	0.184264164	 150.000	 1.504
1656051221.1035881	9.61800	925.755000000	-8.83	914.778122922	0.184388000	-2.10	0.184264164	 150.000	 0.256
1656051222.8505640	9.61200	925.605000000	-8.83	914.629901504	0.184358000	-2.10	0.184234184	 150.000	 -0.538
1656051224.2637920	9.60600	925.605000000	-8.83	914.629901504	0.184358000	-2.10	0.184234184	 150.000	 -0.755
1656051225.4639521	9.60000	925.605000000	-8.83	914.629901504	0.184358000	-2.10	0.184234184	 150.000	 -0.276
1656051226.6727080	9.59200	925.450000000	-8.83	914.476739372	0.184327000	-2.10	0.184203205	 150.000	 0.873
1656051228.3648479	9.58700	925.450000000	-8.83	914.476739372	0.184327000	-2.10	0.184203205	 150.000	 0.107
1656051229.5640039	9.57800	925.450000000	-8.84	914.461854571	0.184327000	-2.10	0.184203205	 150.000	 -0.547
1656051231.7727580	9.57200	925.450000000	-8.84	914.461854571	0.184297000	-2.10	0.184173225	 150.000	 0.996
1656051233.1740179	9.56600	925.300000000	-8.84	914.313635566	0.184297000	-2.10	0.184173225	 150.000	 1.775
1656051234.3612070	9.56000	925.300000000	-8.84	914.313635566	0.184266000	-2.11	0.184141538	 150.000	 1.131
1656051235.5630040	9.54900	925.300000000	-8.84	914.313635566	0.184266000	-2.11	0.184141538	 150.000	 1.258
1656051237.7661221	9.54300	925.145000000	-8.83	914.175355823	0.184266000	-2.10	0.184142246	 150.000	 -0.510
1656051239.1294780	9.53600	924.995000000	-8.83	914.027134406	0.184266000	-2.11	0.184141538	 150.000	 -0.599
1656051240.3668289	9.53100	924.995000000	-8.83	914.027134406	0.184236000	-2.11	0.184111558	 150.000	 1.275
1656051241.5716159	9.52200	924.995000000	-8.83	914.027134406	0.184236000	-2.11	0.184110848	 150.000	 1.181
1656051243.7661171	9.51500	924.995000000	-8.83	914.027134406	0.184205000	-2.11	0.184080579	 150.000	 -0.758
1656051245.2547860	9.50800	924.840000000	-8.84	913.859097284	0.184205000	-2.11	0.184080579	 150.000	 0.907
1656051246.4609189	9.50200	924.840000000	-8.84	913.859097284	0.184205000	-2.11	0.184080579	 150.000	 1.252
1656051247.6696920	9.49500	924.840000000	-8.84	913.859097284	0.184205000	-2.10	0.184081287	 150.000	 -0.577
1656051249.3658230	9.48900	924.840000000	-8.84	913.859097284	0.184175000	-2.11	0.184050599	 150.000	 0.893
1656051250.5639851	9.47900	924.685000000	-8.84	913.705937645	0.184175000	-2.09	0.184052013	 150.000	 -0.808
1656051252.7691050	9.47300	924.685000000	-8.84	913.705937645	0.184175000	-2.10	0.184051307	 150.000	 1.750
1656051254.1829679	9.46600	924.535000000	-8.83	913.572588725	0.184144000	-2.10	0.184020328	 150.000	 0.350
1656051255.3787789	9.46100	924.535000000	-8.83	913.572588725	0.184144000	-2.11	0.184019620	 150.000	 0.157
1656051256.5729499	9.45000	924.535000000	-8.83	913.572588725	0.184114000	-2.09	0.183991053	 150.000	 0.859
1656051258.7730830	9.44500	924.535000000	-8.83	913.572588725	0.184114000	-2.11	0.183989640	 150.000	 -0.670
1656051260.1354330	9.43600	924.380000000	-8.83	913.419426594	0.184083000	-2.10	0.183959369	 150.000	 0.222
1656051261.3681741	9.43100	924.380000000	-8.83	913.419426594	0.184083000	-2.10	0.183959369	 150.000	 1.466
1656051262.5759320	9.41800	924.230000000	-8.83	913.271205176	0.184083000	-2.11	0.183958661	 150.000	 0.753
1656051264.7870309	9.41300	924.230000000	-8.83	913.271205176	0.184083000	-2.11	0.183958661	 150.000	 -0.345
1656051266.2637379	9.40800	924.230000000	-8.83	913.271205176	0.184083000	-2.10	0.183959369	 150.000	 1.484
1656051267.4735100	9.40200	924.075000000	-8.83	913.118043045	0.184052000	-2.10	0.183928390	 150.000	 0.660
1656051268.6753049	9.39100	924.075000000	-8.83	913.118043045	0.184052000	-2.09	0.183929095	 150.000	 -0.776
1656051270.8784249	9.38400	924.075000000	-8.83	913.118043045	0.184052000	-2.10	0.183928390	 150.000	 1.277
1656051272.2497690	9.37800	923.925000000	-8.83	912.969821627	0.184022000	-2.11	0.183897703	 150.000	 1.668
1656051273.4858260	9.37200	923.925000000	-8.83	912.969821627	0.184022000	-2.11	0.183897703	 150.000	 0.406
1656051274.6832740	9.36400	923.925000000	-8.83	912.969821627	0.184022000	-2.10	0.183898410	 150.000	 0.639
1656051276.3781180	9.35700	923.925000000	-8.83	912.969821627	0.183991000	-2.09	0.183868136	 150.000	 0.628
1656051277.5795479	9.34400	923.770000000	-8.84	912.801801715	0.183991000	-2.09	0.183868136	 150.000	 0.456
1656051279.7826719	9.33900	923.770000000	-8.84	912.801801715	0.183991000	-2.10	0.183867430	 150.000	 1.514
1656051281.1470330	9.33100	923.620000000	-8.84	912.653582710	0.183961000	-2.09	0.183838156	 150.000	 -0.403
1656051282.3830919	9.32400	923.620000000	-8.84	912.653582710	0.183961000	-2.09	0.183838156	 150.000	 0.306
1656051283.5858800	9.31400	923.620000000	-8.83	912.668438078	0.183930000	-2.09	0.183807176	 150.000	 1.479
1656051285.7969799	9.30800	923.465000000	-8.83	912.515275946	0.183930000	-2.09	0.183807176	 150.000	 1.268
1656051287.1091220	9.29500	923.465000000	-8.83	912.515275946	0.183900000	-2.10	0.183776492	 150.000	 0.018
1656051288.7996140	9.28900	923.315000000	-8.83	912.367054529	0.183900000	-2.10	0.183776492	 150.000	 -0.404
1656051290.2457530	9.28400	923.315000000	-8.83	912.367054529	0.183900000	-2.10	0.183776492	 150.000	 -0.098
1656051291.4854469	9.27700	923.315000000	-8.83	912.367054529	0.183900000	-2.10	0.183776492	 150.000	 -0.838
1656051292.6845930	9.26700	923.160000000	-8.84	912.199044428	0.183869000	-2.10	0.183745512	 150.000	 1.403
1656051294.3787770	9.26100	923.160000000	-8.83	912.213892397	0.183869000	-2.10	0.183745512	 150.000	 1.736
1656051295.5825181	9.25100	923.010000000	-8.83	912.065670980	0.183869000	-2.10	0.183745512	 150.000	 -0.669
1656051297.7867200	9.24400	923.010000000	-8.83	912.065670980	0.183869000	-2.10	0.183745512	 150.000	 0.540
1656051299.1682961	9.23400	923.010000000	-8.84	912.050825423	0.183839000	-2.10	0.183715533	 150.000	 1.156
1656051300.3850610	9.22800	922.855000000	-8.83	911.912508848	0.183839000	-2.11	0.183714118	 150.000	 -0.808
1656051301.5828490	9.21700	922.855000000	-8.83	911.912508848	0.183808000	-2.10	0.183684553	 150.000	 -0.739
1656051303.7876270	9.21100	922.855000000	-8.83	911.912508848	0.183808000	-2.10	0.183684553	 150.000	 0.689
1656051305.1300449	9.20100	922.705000000	-8.83	911.764287431	0.183808000	-2.10	0.183684553	 150.000	 -0.866
1656051306.8787351	9.19300	922.705000000	-8.83	911.764287431	0.183778000	-2.10	0.183654574	 150.000	 0.812
1656051308.2058389	9.18500	922.705000000	-8.83	911.764287431	0.183747000	-2.11	0.183622888	 150.000	 1.087
1656051309.3966620	9.17800	922.705000000	-8.83	911.764287431	0.183778000	-2.10	0.183654574	 150.000	 1.527
1656051310.5888331	9.16700	922.550000000	-8.83	911.611125299	0.183747000	-2.09	0.183624298	 150.000	 -0.573
1656051312.7859709	9.16100	922.550000000	-8.83	911.611125299	0.183717000	-2.10	0.183593615	 150.000	 1.945
1656051314.2287700	9.15200	922.400000000	-8.83	911.462903882	0.183747000	-2.10	0.183623594	 150.000	 1.147
1656051315.4764390	9.14500	922.400000000	-8.83	911.462903882	0.183717000	-2.09	0.183594318	 150.000	 0.509
1656051316.6862161	9.13500	922.245000000	-8.83	911.309741750	0.183686000	-2.10	0.183562635	 150.000	 0.625
1656051318.3896711	9.13000	922.245000000	-8.83	911.309741750	0.183686000	-2.10	0.183562635	 150.000	 -0.235
1656051319.5904660	9.12000	922.095000000	-8.84	911.146689492	0.183686000	-2.10	0.183562635	 150.000	 -0.097
1656051321.7915909	9.11500	922.095000000	-8.84	911.146689492	0.183686000	-2.09	0.183563339	 150.000	 1.231
1656051323.1549530	9.10800	922.095000000	-8.84	911.146689492	0.183656000	-2.10	0.183532655	 150.000	 1.432
1656051324.3886659	9.10200	922.095000000	-8.83	911.161520332	0.183656000	-2.10	0.183532655	 150.000	 0.344
1656051325.5914569	9.09000	921.940000000	-8.83	911.008358201	0.183656000	-2.09	0.183533359	 150.000	 0.509
1656051327.8009281	9.08500	921.940000000	-8.83	911.008358201	0.183656000	-2.10	0.183532655	 150.000	 1.581
1656051329.2875929	9.07900	921.940000000	-8.83	911.008358201	0.183625000	-2.10	0.183501676	 150.000	 1.647
1656051330.4963701	9.07300	921.940000000	-8.83	911.008358201	0.183625000	-2.10	0.183501676	 150.000	 0.614
1656051331.6981640	9.06100	921.790000000	-8.83	910.874952729	0.183595000	-2.10	0.183471696	 150.000	 1.312
1656051333.9016559	9.05500	921.790000000	-8.83	910.874952729	0.183564000	-2.09	0.183441421	 150.000	 1.351
1656051335.2350709	9.04800	921.635000000	-8.83	910.706974652	0.183564000	-2.09	0.183441421	 150.000	 0.969
1656051336.4255509	9.04200	921.635000000	-8.83	910.706974652	0.183564000	-2.10	0.183440717	 150.000	 -0.732
1656051337.6177311	9.03000	921.485000000	-8.83	910.558753234	0.183534000	-2.10	0.183410737	 150.000	 1.256
1656051339.8108809	9.02600	921.485000000	-8.83	910.558753234	0.183534000	-2.09	0.183411441	 150.000	 1.550
1656051341.1918321	9.02100	921.485000000	-8.83	910.558753234	0.183534000	-2.10	0.183410737	 150.000	 1.555
1656051342.4026041	9.01400	921.485000000	-8.83	910.558753234	0.183534000	-2.09	0.183411441	 150.000	 -0.796
1656051343.6007659	9.00300	921.330000000	-8.83	910.405591103	0.183503000	-2.10	0.183379758	 150.000	 0.492
1656051345.8095160	8.99500	921.330000000	-8.83	910.420399655	0.183503000	-2.09	0.183380461	 150.000	 1.549
1656051347.1399660	8.98800	921.330000000	-8.83	910.405591103	0.183503000	-2.09	0.183380461	 150.000	 0.849
1656051348.8304541	8.98300	921.180000000	-8.83	910.272175827	0.183473000	-2.09	0.183350481	 150.000	 -0.157
1656051350.1403151	8.97400	921.180000000	-8.83	910.257369685	0.183473000	-2.09	0.183350481	 150.000	 -0.567
1656051351.8328021	8.96800	921.180000000	-8.83	910.257369685	0.183473000	-2.10	0.183349778	 150.000	 0.849
1656051353.2736020	8.96000	921.025000000	-8.83	910.104207554	0.183473000	-2.10	0.183349778	 150.000	 0.071
1656051354.5152860	8.95300	921.025000000	-8.83	910.104207554	0.183442000	-2.10	0.183318799	 150.000	 0.701
1656051355.7134449	8.94400	921.025000000	-8.83	910.104207554	0.183442000	-2.10	0.183318799	 150.000	 -0.657
1656051357.4085679	8.93900	920.875000000	-8.83	909.970787375	0.183412000	-2.10	0.183288819	 150.000	 -0.613
1656051358.6127081	8.92900	920.875000000	-8.83	909.970787375	0.183412000	-2.09	0.183289522	 150.000	 1.640
1656051360.8104920	8.92300	920.875000000	-8.83	909.970787375	0.183412000	-2.10	0.183288819	 150.000	 -0.876
1656051362.1938021	8.91500	920.720000000	-8.83	909.817622753	0.183381000	-2.09	0.183258543	 150.000	 0.175
1656051363.4085591	8.90900	920.720000000	-8.83	909.817622753	0.183381000	-2.10	0.183257840	 150.000	 0.809
1656051364.6136930	8.89900	920.570000000	-8.83	909.669398924	0.183351000	-2.09	0.183228563	 150.000	 -0.649
1656051366.8154719	8.89200	920.570000000	-8.83	909.669398924	0.183351000	-2.10	0.183227860	 150.000	 -0.097
1656051368.1529050	8.88400	920.415000000	-8.83	909.501440455	0.183351000	-2.10	0.183227860	 150.000	 1.242
1656051369.9032350	8.87600	920.415000000	-8.83	909.501440455	0.183320000	-2.10	0.183196881	 150.000	 -0.633
1656051371.2326870	8.87000	920.415000000	-8.83	909.501440455	0.183320000	-2.09	0.183197584	 150.000	 -0.827
1656051372.4288499	8.86600	920.415000000	-8.83	909.501440455	0.183320000	-2.09	0.183197584	 150.000	 1.538
1656051373.6196771	8.85400	920.260000000	-8.83	909.363069678	0.183290000	-2.10	0.183166901	 150.000	 0.534
1656051375.8124659	8.84700	920.260000000	-8.83	909.348278324	0.183290000	-2.10	0.183166901	 150.000	 1.487
1656051377.2526250	8.83900	920.260000000	-8.83	909.363069678	0.183290000	-2.09	0.183167604	 150.000	 -0.195
1656051378.4434500	8.83300	920.260000000	-8.83	909.363069678	0.183290000	-2.10	0.183166901	 150.000	 -0.365
1656051379.6352689	8.82300	920.110000000	-8.83	909.214845850	0.183259000	-2.09	0.183136624	 150.000	 0.186
1656051381.8264210	8.81600	920.110000000	-8.83	909.214845850	0.183259000	-2.10	0.183135922	 150.000	 -0.522
1656051383.2050900	8.81000	920.110000000	-8.83	909.200056906	0.183259000	-2.09	0.183136624	 150.000	 -0.430
1656051384.4168670	8.80400	919.955000000	-8.83	909.046894775	0.183259000	-2.10	0.183135922	 150.000	 1.737
1656051385.6136711	8.79400	919.955000000	-8.83	909.046894775	0.183228000	-2.10	0.183104943	 150.000	 0.676
1656051387.8194330	8.78800	919.955000000	-8.83	909.046894775	0.183198000	-2.10	0.183074963	 150.000	 0.655
1656051389.1578619	8.77700	919.805000000	-8.83	908.913457398	0.183198000	-2.09	0.183075665	 150.000	 -0.196
1656051390.9091940	8.77100	919.650000000	-8.83	908.760292776	0.183198000	-2.10	0.183074963	 150.000	 0.936
1656051392.3184309	8.76500	919.650000000	-8.83	908.760292776	0.183198000	-2.09	0.183075665	 150.000	 -0.466
1656051393.5225799	8.76000	919.650000000	-8.83	908.760292776	0.183167000	-2.10	0.183043984	 150.000	 -0.762
1656051394.7313521	8.74900	919.650000000	-8.83	908.760292776	0.183167000	-2.09	0.183044686	 150.000	 1.447
1656051396.4245989	8.74300	919.500000000	-8.83	908.612068947	0.183167000	-2.09	0.183045386	 150.000	 0.675
1656051397.6262710	8.73300	919.500000000	-8.83	908.612068947	0.183137000	-2.09	0.183015406	 150.000	 -0.369
1656051399.8303890	8.72600	919.500000000	-8.83	908.612068947	0.183137000	-2.09	0.183014706	 150.000	 -0.049
1656051401.2389891	8.71700	919.345000000	-8.83	908.458904324	0.183137000	-2.09	0.183015406	 150.000	 1.155
1656051402.9301181	8.71100	919.345000000	-8.83	908.458904324	0.183106000	-2.09	0.182983727	 150.000	 -0.486
1656051404.3692801	8.70500	919.345000000	-8.83	908.444127677	0.183106000	-2.10	0.182983025	 150.000	 0.019
1656051405.5614631	8.69900	919.345000000	-8.83	908.458904324	0.183106000	-2.09	0.182983727	 150.000	 -0.109
1656051406.7502840	8.68600	919.195000000	-8.83	908.310680496	0.183076000	-2.10	0.182953045	 150.000	 0.132
1656051408.9460690	8.68000	919.195000000	-8.83	908.310680496	0.183045000	-2.09	0.182922767	 150.000	 0.232
1656051410.3243921	8.67300	919.195000000	-8.83	908.310680496	0.183076000	-2.09	0.182953747	 150.000	 -0.723
1656051411.5311730	8.66800	919.040000000	-8.83	908.157515873	0.183045000	-2.09	0.182922767	 150.000	 1.605
1656051412.7299750	8.65800	919.040000000	-8.83	908.157515873	0.183015000	-2.09	0.182892787	 150.000	 1.506
1656051414.4337859	8.65200	919.040000000	-8.83	908.157515873	0.183015000	-2.09	0.182892787	 150.000	 1.300
1656051415.6342239	8.64000	918.890000000	-8.83	907.994522710	0.183015000	-2.09	0.182892787	 150.000	 0.927
1656051417.8376880	8.63500	918.890000000	-8.83	907.994522710	0.183015000	-2.09	0.182892787	 150.000	 0.671
1656051419.2698810	8.62500	918.735000000	-8.83	907.841360578	0.183015000	-2.09	0.182892787	 150.000	 1.450
1656051420.9610131	8.62000	918.735000000	-8.83	907.841360578	0.182984000	-2.10	0.182861107	 150.000	 1.279
1656051422.2655330	8.61200	918.735000000	-8.83	907.856127422	0.182984000	-2.10	0.182861107	 150.000	 1.280
1656051423.4533620	8.60700	918.735000000	-8.83	907.856127422	0.182984000	-2.10	0.182861107	 150.000	 -0.830
1656051424.6451859	8.59600	918.585000000	-8.83	907.707903593	0.182984000	-2.10	0.182861107	 150.000	 1.028
1656051426.8356841	8.59000	918.585000000	-8.83	907.707903593	0.182954000	-2.09	0.182831828	 150.000	 0.149
1656051428.1990490	8.58300	918.585000000	-8.83	907.707903593	0.182954000	-2.10	0.182831127	 150.000	 -0.753
1656051429.4327641	8.57600	918.430000000	-8.83	907.554738970	0.182923000	-2.09	0.182800849	 150.000	 -0.235
1656051430.6335630	8.56500	918.430000000	-8.83	907.539977029	0.182923000	-2.09	0.182800849	 150.000	 -0.530
1656051432.8396680	8.55900	918.280000000	-8.83	907.406515142	0.182923000	-2.09	0.182800849	 150.000	 1.724
1656051434.1571641	8.55000	918.430000000	-8.83	907.539977029	0.182923000	-2.09	0.182800849	 150.000	 1.370
1656051435.8472970	8.54300	918.280000000	-8.83	907.406515142	0.182923000	-2.09	0.182800849	 150.000	 -0.231
1656051437.3014190	8.53800	918.280000000	-8.83	907.406515142	0.182893000	-2.09	0.182771568	 150.000	 0.928
1656051438.5365000	8.53100	918.280000000	-8.83	907.406515142	0.182893000	-2.09	0.182770869	 150.000	 0.143
1656051439.7319341	8.52100	918.125000000	-8.83	907.253350519	0.182893000	-2.09	0.182770869	 150.000	 0.187
1656051441.4415691	8.51600	918.125000000	-8.83	907.253350519	0.182862000	-2.10	0.182739189	 150.000	 1.307
1656051442.6355481	8.50300	918.125000000	-8.83	907.253350519	0.182832000	-2.09	0.182709909	 150.000	 0.843
1656051444.8393130	8.49700	918.125000000	-8.83	907.253350519	0.182832000	-2.09	0.182709909	 150.000	 -0.662
1656051446.2286029	8.49000	917.975000000	-8.83	907.105126690	0.182832000	-2.09	0.182709909	 150.000	 -0.805
1656051447.4353831	8.48500	917.820000000	-8.83	906.951962067	0.182832000	-2.09	0.182709909	 150.000	 0.634
1656051448.6415191	8.47400	917.820000000	-8.83	906.951962067	0.182801000	-2.10	0.182678230	 150.000	 1.417
1656051450.8432920	8.46700	917.670000000	-8.83	906.803738239	0.182801000	-2.09	0.182678930	 150.000	 1.450
1656051452.1787281	8.45900	917.670000000	-8.83	906.803738239	0.182801000	-2.09	0.182678930	 150.000	 -0.124
1656051453.8712120	8.45300	917.670000000	-8.83	906.803738239	0.182801000	-2.09	0.182678930	 150.000	 1.301
1656051455.1936860	8.44100	917.670000000	-8.83	906.803738239	0.182801000	-2.09	0.182678930	 150.000	 1.095
1656051456.9430151	8.43600	917.515000000	-8.83	906.650573616	0.182771000	-2.09	0.182648950	 150.000	 1.397
1656051458.2877760	8.43000	917.515000000	-8.83	906.650573616	0.182771000	-2.09	0.182649649	 150.000	 1.458
1656051459.5341020	8.42400	917.515000000	-8.83	906.650573616	0.182771000	-2.09	0.182648950	 150.000	 1.409
1656051460.7438760	8.41400	917.515000000	-8.83	906.650573616	0.182740000	-2.09	0.182617971	 150.000	 -0.440
1656051462.4456921	8.40900	917.365000000	-8.83	906.502349788	0.182740000	-2.09	0.182617971	 150.000	 -0.690
1656051463.6474850	8.39600	917.365000000	-8.83	906.487604964	0.182740000	-2.09	0.182617971	 150.000	 -0.783
1656051465.8532441	8.39000	917.365000000	-8.83	906.502349788	0.182710000	-2.09	0.182587991	 150.000	 1.477
1656051467.2329249	8.38100	917.365000000	-8.83	906.502349788	0.182710000	-2.09	0.182588689	 150.000	 1.562
1656051468.9403751	8.37500	917.210000000	-8.83	906.349185165	0.182710000	-2.09	0.182587991	 150.000	 0.297
1656051470.3835030	8.36700	917.210000000	-8.83	906.349185165	0.182679000	-2.09	0.182557710	 150.000	 -0.309
1656051471.5740011	8.36200	917.210000000	-8.83	906.349185165	0.182679000	-2.09	0.182557012	 150.000	 0.415
1656051472.7648020	8.35300	917.060000000	-8.83	906.200961336	0.182649000	-2.09	0.182527730	 150.000	 -0.830
1656051474.4542971	8.34600	916.905000000	-8.83	906.047796713	0.182649000	-2.09	0.182527032	 150.000	 1.766
1656051475.6421270	8.33700	916.905000000	-8.82	906.062524207	0.182649000	-2.09	0.182527730	 150.000	 -0.872
1656051477.8452470	8.32900	916.905000000	-8.83	906.047796713	0.182618000	-2.09	0.182496052	 150.000	 1.288
1656051479.1561141	8.32000	916.905000000	-8.83	906.047796713	0.182618000	-2.09	0.182496052	 150.000	 0.822
1656051480.8492360	8.31300	916.755000000	-8.83	905.899572885	0.182618000	-2.09	0.182496750	 150.000	 1.642
1656051482.2893920	8.30600	916.755000000	-8.83	905.899572885	0.182618000	-2.09	0.182496052	 150.000	 -0.358
1656051483.4762270	8.30000	916.755000000	-8.83	905.899572885	0.182618000	-2.09	0.182496052	 150.000	 1.361
1656051484.6690459	8.28800	916.755000000	-8.83	905.899572885	0.182588000	-2.09	0.182466072	 150.000	 -0.121
1656051486.8611970	8.28100	916.600000000	-8.83	905.746408262	0.182588000	-2.09	0.182466072	 150.000	 1.245
1656051488.2435100	8.27100	916.600000000	-8.83	905.746408262	0.182557000	-2.09	0.182435093	 150.000	 -0.263
1656051489.9532931	8.26400	916.600000000	-8.83	905.746408262	0.182557000	-2.09	0.182435093	 150.000	 1.150
1656051491.3784959	8.25600	916.600000000	-8.83	905.746408262	0.182557000	-2.09	0.182435093	 150.000	 -0.737
1656051492.5729580	8.25000	916.450000000	-8.83	905.598184433	0.182557000	-2.09	0.182435093	 150.000	 0.605
1656051493.7637801	8.23900	916.450000000	-8.82	905.612904619	0.182557000	-2.09	0.182435791	 150.000	 1.378
1656051495.4612529	8.23300	916.450000000	-8.82	905.612904619	0.182527000	-2.09	0.182405113	 150.000	 -0.757
1656051496.6564209	8.21900	916.295000000	-8.83	905.445019811	0.182527000	-2.09	0.182405113	 150.000	 -0.483
1656051498.8615260	8.21300	916.295000000	-8.83	905.445019811	0.182496000	-2.09	0.182374134	 150.000	 1.687
1656051500.3186381	8.20500	916.295000000	-8.83	905.445019811	0.182496000	-2.09	0.182374134	 150.000	 1.642
1656051501.5583551	8.19800	916.140000000	-8.83	905.291855188	0.182466000	-2.09	0.182344154	 150.000	 1.396
1656051502.7607770	8.18700	916.140000000	-8.82	905.306570394	0.182466000	-2.09	0.182344851	 150.000	 -0.407
1656051504.4616041	8.18300	915.990000000	-8.82	905.158344156	0.182466000	-2.09	0.182344154	 150.000	 -0.640
1656051505.6633930	8.16900	915.990000000	-8.82	905.158344156	0.182435000	-2.09	0.182313175	 150.000	 1.716
1656051507.8641610	8.16200	915.990000000	-8.82	905.158344156	0.182435000	-2.08	0.182314567	 150.000	 1.359
1656051509.2488110	8.15500	915.835000000	-8.82	905.005177043	0.182435000	-2.09	0.182313175	 150.000	 0.255
1656051510.4662211	8.14900	915.835000000	-8.82	905.005177043	0.182435000	-2.09	0.182313175	 150.000	 1.244
1656051511.6600320	8.13600	915.835000000	-8.82	905.005177043	0.182405000	-2.09	0.182283195	 150.000	 -0.261
1656051513.8701379	8.12800	915.835000000	-8.82	905.005177043	0.182405000	-2.09	0.182283892	 150.000	 1.487
1656051515.2009320	8.11900	915.685000000	-8.83	904.842242908	0.182405000	-2.09	0.182283195	 150.000	 -0.646
1656051516.8914349	8.11100	915.685000000	-8.83	904.842242908	0.182374000	-2.09	0.182252912	 150.000	 0.649
1656051518.2075660	8.10300	915.685000000	-8.83	904.842242908	0.182374000	-2.09	0.182252215	 150.000	 -0.078
1656051519.9622381	8.09700	915.530000000	-8.83	904.689078285	0.182374000	-2.09	0.182252912	 150.000	 1.154
1656051521.3092930	8.08700	915.530000000	-8.82	904.703783693	0.182374000	-2.08	0.182253607	 150.000	 -0.388
1656051522.9981370	8.08200	915.530000000	-8.83	904.689078285	0.182343000	-2.09	0.182221933	 150.000	 0.540
1656051524.3066490	8.07000	915.380000000	-8.82	904.555557455	0.182343000	-2.09	0.182221236	 150.000	 1.275
1656051525.9981320	8.06500	915.380000000	-8.82	904.555557455	0.182343000	-2.09	0.182221236	 150.000	 0.459
1656051527.3032990	8.06000	915.380000000	-8.82	904.555557455	0.182313000	-2.09	0.182191953	 150.000	 1.153
1656051528.4941220	8.05200	915.380000000	-8.82	904.555557455	0.182313000	-2.09	0.182191953	 150.000	 0.015
1656051529.6872890	8.04400	915.225000000	-8.83	904.387689834	0.182282000	-2.08	0.182161668	 150.000	 1.323
1656051531.8834250	8.03600	915.075000000	-8.83	904.239466005	0.182282000	-2.09	0.182160277	 150.000	 1.321
1656051533.2324829	8.03000	915.075000000	-8.83	904.239466005	0.182282000	-2.09	0.182160973	 150.000	 1.337
1656051534.4681840	8.02400	915.075000000	-8.83	904.239466005	0.182252000	-2.09	0.182130993	 150.000	 -0.749
1656051535.6743269	8.01400	915.075000000	-8.83	904.239466005	0.182252000	-2.09	0.182130993	 150.000	 0.517
1656051537.8724439	8.00800	915.075000000	-8.83	904.239466005	0.182252000	-2.09	0.182130993	 150.000	 -0.544
1656051539.1979010	8.00000	914.920000000	-8.82	904.100996992	0.182221000	-2.09	0.182100014	 150.000	 -0.170
1656051540.8860610	7.99100	914.920000000	-8.82	904.100996992	0.182221000	-2.09	0.182100014	 150.000	 1.270
1656051542.2095270	7.98300	914.920000000	-8.82	904.100996992	0.182221000	-2.09	0.182100014	 150.000	 -0.623
1656051543.9701991	7.97900	914.770000000	-8.82	903.952770755	0.182221000	-2.09	0.182100014	 150.000	 1.072
1656051545.2943010	7.97100	914.770000000	-8.83	903.938077554	0.182191000	-2.09	0.182069338	 150.000	 1.339
1656051546.4921050	7.96500	914.770000000	-8.83	903.938077554	0.182191000	-2.09	0.182069338	 150.000	 0.724
1656051547.6829290	7.95400	914.615000000	-8.83	903.784912931	0.182191000	-2.09	0.182070034	 150.000	 -0.635
1656051549.8750820	7.94800	914.615000000	-8.82	903.799603642	0.182191000	-2.09	0.182070034	 150.000	 1.525
1656051551.2627220	7.94000	914.615000000	-8.83	903.784912931	0.182160000	-2.09	0.182038358	 150.000	 1.752
1656051552.4784861	7.93500	914.615000000	-8.82	903.799603642	0.182160000	-2.09	0.182039054	 150.000	 1.365
1656051553.6759369	7.92400	914.465000000	-8.83	903.636689102	0.182160000	-2.09	0.182039054	 150.000	 -0.861
1656051555.8800609	7.91900	914.465000000	-8.82	903.651377404	0.182160000	-2.09	0.182039054	 150.000	 1.137
1656051557.2145000	7.90900	914.465000000	-8.82	903.651377404	0.182130000	-2.09	0.182009074	 150.000	 -0.701
1656051558.9000020	7.90200	914.465000000	-8.82	903.651377404	0.182099000	-2.09	0.181978095	 150.000	 -0.868
1656051560.2158539	7.89400	914.310000000	-8.82	903.498210292	0.182099000	-2.09	0.181977399	 150.000	 1.199
1656051561.9063439	7.88700	914.310000000	-8.82	903.498210292	0.182099000	-2.09	0.181977399	 150.000	 -0.768
1656051563.3431489	7.88000	914.160000000	-8.82	903.349984054	0.182099000	-2.09	0.181978095	 150.000	 1.380
1656051564.5871911	7.87300	914.160000000	-8.82	903.349984054	0.182069000	-2.09	0.181947419	 150.000	 0.980
1656051565.7866290	7.86000	914.160000000	-8.83	903.335300651	0.182069000	-2.09	0.181948115	 150.000	 0.162
1656051567.9881110	7.85600	914.005000000	-8.83	903.182136028	0.182069000	-2.09	0.181947419	 150.000	 0.782
1656051569.3165851	7.84800	914.005000000	-8.83	903.182136028	0.182038000	-2.08	0.181917829	 150.000	 -0.688
1656051571.0080431	7.84200	914.005000000	-8.82	903.196816941	0.182038000	-2.09	0.181917135	 150.000	 -0.721
1656051572.4322391	7.83500	913.855000000	-8.82	903.048590704	0.182038000	-2.09	0.181916440	 150.000	 1.836
1656051573.6210711	7.82800	913.855000000	-8.82	903.048590704	0.182008000	-2.08	0.181887849	 150.000	 0.814
1656051574.8139050	7.81900	913.855000000	-8.82	903.048590704	0.182008000	-2.09	0.181887155	 150.000	 1.322
1656051576.5060301	7.81400	913.855000000	-8.83	903.033912200	0.182008000	-2.09	0.181887155	 150.000	 -0.949
1656051577.6961980	7.80100	913.700000000	-8.82	902.895423591	0.182008000	-2.09	0.181886460	 150.000	 1.403
1656051579.8969800	7.79600	913.700000000	-8.82	902.895423591	0.181977000	-2.09	0.181855480	 150.000	 -0.678
1656051581.2168159	7.78800	913.700000000	-8.83	902.880747577	0.181977000	-2.09	0.181856176	 150.000	 1.343
1656051582.9079490	7.78300	913.700000000	-8.82	902.895423591	0.181947000	-2.09	0.181826196	 150.000	 -0.605
1656051584.3484471	7.77300	913.550000000	-8.83	902.732523748	0.181947000	-2.09	0.181825500	 150.000	 -0.703
1656051585.5907910	7.76600	913.550000000	-8.82	902.747197353	0.181947000	-2.09	0.181826196	 150.000	 1.172
1656051586.7915871	7.76000	913.550000000	-8.82	902.747197353	0.181947000	-2.09	0.181826196	 150.000	 -0.286
1656051588.4920480	7.75300	913.550000000	-8.82	902.747197353	0.181947000	-2.08	0.181826889	 150.000	 1.530
1656051589.6912050	7.74000	913.245000000	-8.82	902.445804003	0.181916000	-2.09	0.181795216	 150.000	 0.706
1656051591.8979630	7.73500	913.245000000	-8.82	902.445804003	0.181916000	-2.08	0.181795909	 150.000	 1.800
1656051593.2762840	7.72900	913.245000000	-8.82	902.445804003	0.181916000	-2.08	0.181795909	 150.000	 0.344
1656051594.4930389	7.72300	913.245000000	-8.82	902.445804003	0.181886000	-2.08	0.181765929	 150.000	 -0.687
1656051595.6911960	7.71100	913.090000000	-8.82	902.292636890	0.181886000	-2.09	0.181765236	 150.000	 1.658
1656051597.8992920	7.70600	913.090000000	-8.82	902.292636890	0.181886000	-2.08	0.181766620	 150.000	 -0.025
1656051599.2297590	7.69600	913.090000000	-8.82	902.292636890	0.181855000	-2.08	0.181734950	 150.000	 -0.533
1656051600.9208879	7.69100	913.090000000	-8.82	902.292636890	0.181855000	-2.09	0.181734257	 150.000	 1.693
1656051602.2254059	7.68100	913.090000000	-8.82	902.292636890	0.181855000	-2.09	0.181734257	 150.000	 0.433
1656051603.9139020	7.67300	912.940000000	-8.82	902.144410653	0.181855000	-2.08	0.181734950	 150.000	 0.996
1656051605.3570540	7.66700	912.940000000	-8.82	902.144410653	0.181825000	-2.09	0.181704277	 150.000	 0.888
1656051606.6007330	7.66100	912.940000000	-8.82	902.144410653	0.181825000	-2.09	0.181704277	 150.000	 -0.864
1656051607.7985401	7.65300	912.785000000	-8.81	902.005894966	0.181825000	-2.08	0.181704969	 150.000	 -0.803
1656051609.4973660	7.64600	912.785000000	-8.82	901.991243540	0.181794000	-2.09	0.181673297	 150.000	 0.941
1656051610.6961639	7.63700	912.785000000	-8.82	901.991243540	0.181794000	-2.09	0.181673297	 150.000	 -0.367
1656051612.9019251	7.62800	912.785000000	-8.82	901.991243540	0.181764000	-2.09	0.181643317	 150.000	 1.362
1656051614.2842369	7.62100	912.635000000	-8.82	901.843017302	0.181764000	-2.09	0.181643317	 150.000	 1.540
1656051615.4983561	7.61500	912.635000000	-8.82	901.843017302	0.181764000	-2.09	0.181643317	 150.000	 1.502
1656051616.7010930	7.60500	912.480000000	-8.82	901.689850190	0.181764000	-2.09	0.181643317	 150.000	 0.218
1656051618.9039090	7.60100	912.330000000	-8.82	901.541623952	0.181733000	-2.09	0.181612338	 150.000	 1.292
1656051620.2333629	7.58900	912.330000000	-8.82	901.541623952	0.181733000	-2.09	0.181612338	 150.000	 -0.637
1656051621.9241979	7.58200	912.330000000	-8.82	901.541623952	0.181733000	-2.09	0.181612338	 150.000	 1.067
1656051623.2323620	7.57300	912.330000000	-8.82	901.541623952	0.181733000	-2.09	0.181612338	 150.000	 1.674
1656051624.9228499	7.56700	912.330000000	-8.82	901.541623952	0.181733000	-2.09	0.181612338	 150.000	 0.220
1656051626.3650010	7.56000	912.330000000	-8.82	901.541623952	0.181703000	-2.09	0.181582358	 150.000	 -0.333
1656051627.6036990	7.55400	912.175000000	-8.82	901.388456839	0.181703000	-2.08	0.181583050	 150.000	 1.387
1656051628.8015029	7.54400	912.175000000	-8.82	901.388456839	0.181672000	-2.08	0.181552070	 150.000	 -0.799
1656051630.5063000	7.54000	912.175000000	-8.81	901.403098474	0.181703000	-2.08	0.181583050	 150.000	 1.210
1656051631.7037599	7.52700	912.025000000	-8.81	901.254869828	0.181672000	-2.09	0.181550684	 150.000	 -0.773
1656051633.9098721	7.52300	912.025000000	-8.81	901.254869828	0.181672000	-2.08	0.181552070	 150.000	 0.975
1656051635.2961731	7.51400	912.025000000	-8.82	901.240230602	0.181672000	-2.08	0.181552070	 150.000	 -0.480
1656051636.5043061	7.50600	911.870000000	-8.82	901.087063489	0.181642000	-2.09	0.181521398	 150.000	 1.135
1656051637.7031031	7.49900	911.870000000	-8.82	901.087063489	0.181642000	-2.08	0.181522090	 150.000	 -0.728
1656051639.9052241	7.49000	911.870000000	-8.82	901.087063489	0.181642000	-2.09	0.181521398	 150.000	 -0.819
1656051641.2462981	7.48400	911.870000000	-8.82	901.087063489	0.181611000	-2.08	0.181491111	 150.000	 0.017
1656051642.9367869	7.47600	911.715000000	-8.82	900.933896377	0.181581000	-2.09	0.181460439	 150.000	 0.369
1656051644.2576210	7.46600	911.715000000	-8.82	900.933896377	0.181581000	-2.09	0.181460439	 150.000	 1.428
1656051646.0075991	7.45900	911.715000000	-8.82	900.933896377	0.181581000	-2.09	0.181460439	 150.000	 0.503
1656051647.3871889	7.45400	911.715000000	-8.82	900.933896377	0.181581000	-2.09	0.181460439	 150.000	 -0.642
1656051648.6090300	7.44600	911.565000000	-8.81	900.800301982	0.181550000	-2.08	0.181430151	 150.000	 -0.626
1656051649.8094521	7.43700	911.565000000	-8.81	900.800301982	0.181550000	-2.08	0.181430151	 150.000	 -0.658
1656051651.5099540	7.43200	911.410000000	-8.82	900.632503026	0.181550000	-2.08	0.181430151	 150.000	 -0.137
1656051652.7090671	7.42100	911.410000000	-8.82	900.632503026	0.181550000	-2.08	0.181430151	 150.000	 -0.527
1656051654.9118381	7.41400	911.410000000	-8.82	900.632503026	0.181520000	-2.08	0.181400171	 150.000	 -0.579
1656051656.2964880	7.40900	911.260000000	-8.82	900.484276788	0.181520000	-2.09	0.181399479	 150.000	 0.216
1656051657.5158911	7.40100	911.260000000	-8.82	900.484276788	0.181520000	-2.08	0.181400171	 150.000	 1.517
1656051658.7130511	7.38900	911.260000000	-8.82	900.484276788	0.181520000	-2.08	0.181400171	 150.000	 1.298
1656051660.9148209	7.38200	911.260000000	-8.82	900.484276788	0.181489000	-2.08	0.181369191	 150.000	 1.522
1656051662.2492599	7.37400	911.260000000	-8.81	900.498903736	0.181489000	-2.08	0.181369191	 150.000	 1.437
1656051663.9377601	7.37000	911.105000000	-8.81	900.345734136	0.181489000	-2.08	0.181369191	 150.000	 -0.338
1656051665.2562411	7.35600	911.105000000	-8.81	900.345734136	0.181489000	-2.08	0.181369191	 150.000	 -0.638
1656051667.0125511	7.35200	911.105000000	-8.81	900.345734136	0.181458000	-2.08	0.181338212	 150.000	 1.380
1656051668.3340271	7.34500	910.955000000	-8.81	900.197505490	0.181458000	-2.08	0.181338212	 150.000	 1.592
1656051669.5252070	7.33900	910.955000000	-8.81	900.197505490	0.181458000	-2.08	0.181338212	 150.000	 0.149
1656051670.7180200	7.32900	910.955000000	-8.82	900.182883438	0.181458000	-2.08	0.181338212	 150.000	 1.576
1656051672.9161551	7.32600	910.955000000	-8.82	900.182883438	0.181458000	-2.08	0.181338212	 150.000	 -0.500
1656051674.3280361	7.31600	910.800000000	-8.82	900.029716326	0.181428000	-2.08	0.181308231	 150.000	 -0.426
1656051675.5231991	7.31000	910.800000000	-8.82	900.029716326	0.181428000	-2.08	0.181308231	 150.000	 -0.869
1656051676.7150340	7.29600	910.800000000	-8.82	900.029716326	0.181397000	-2.08	0.181277252	 150.000	 -0.048
1656051678.9201391	7.28900	910.800000000	-8.82	900.029716326	0.181397000	-2.09	0.181276561	 150.000	 1.635
1656051680.2791569	7.28300	910.650000000	-8.81	899.896107244	0.181397000	-2.08	0.181277252	 150.000	 1.408
1656051681.5138640	7.27900	910.650000000	-8.82	899.881490088	0.181367000	-2.08	0.181247272	 150.000	 -0.673
1656051682.7160120	7.26800	910.495000000	-8.81	899.742937644	0.181367000	-2.08	0.181247272	 150.000	 0.915
1656051684.9187801	7.26100	910.495000000	-8.81	899.742937644	0.181367000	-2.08	0.181247272	 150.000	 1.299
1656051686.2386041	7.24900	910.495000000	-8.82	899.728322975	0.181367000	-2.09	0.181246581	 150.000	 1.645
1656051687.9310999	7.24400	910.495000000	-8.81	899.742937644	0.181336000	-2.08	0.181216292	 150.000	 0.032
1656051689.2475891	7.23400	910.495000000	-8.81	899.742937644	0.181336000	-2.08	0.181216292	 150.000	 1.383
1656051690.9380751	7.22600	910.345000000	-8.82	899.580096737	0.181336000	-2.09	0.181215601	 150.000	 1.407
1656051692.3599279	7.22000	910.345000000	-8.82	899.580096737	0.181336000	-2.08	0.181216292	 150.000	 -0.741
1656051693.5491109	7.21500	910.345000000	-8.81	899.594708998	0.181336000	-2.08	0.181216292	 150.000	 1.667
1656051694.7419341	7.20100	910.190000000	-8.82	899.426929625	0.181306000	-2.08	0.181186312	 150.000	 1.110
1656051696.9347210	7.19500	910.190000000	-8.82	899.426929625	0.181306000	-2.08	0.181186312	 150.000	 -0.505
1656051698.3130431	7.18600	910.190000000	-8.82	899.426929625	0.181275000	-2.09	0.181154642	 150.000	 1.327
1656051699.5218201	7.17800	910.190000000	-8.81	899.441539398	0.181275000	-2.09	0.181154642	 150.000	 1.127
1656051700.7209809	7.16600	910.040000000	-8.81	899.293310752	0.181275000	-2.09	0.181154642	 150.000	 -0.767
1656051702.9240961	7.15900	910.040000000	-8.81	899.293310752	0.181275000	-2.09	0.181154642	 150.000	 1.293
1656051704.2621710	7.15300	910.040000000	-8.81	899.293310752	0.181245000	-2.08	0.181125352	 150.000	 -0.696
1656051705.9546571	7.14300	909.885000000	-8.82	899.125536275	0.181245000	-2.08	0.181125352	 150.000	 1.119
1656051707.2641621	7.12900	909.885000000	-8.82	899.125536275	0.181214000	-2.09	0.181093682	 150.000	 0.219
1656051708.9546521	7.12400	909.735000000	-8.81	898.991912506	0.181214000	-2.08	0.181094373	 150.000	 0.933
1656051710.3918149	7.11800	909.885000000	-8.82	899.125536275	0.181214000	-2.08	0.181094373	 150.000	 -0.604
1656051711.6245270	7.10800	909.735000000	-8.82	898.977310037	0.181214000	-2.08	0.181094373	 150.000	 1.041
1656051712.8243270	7.10200	909.735000000	-8.82	898.977310037	0.181214000	-2.08	0.181094373	 150.000	 -0.824
1656051714.5241549	7.09200	909.580000000	-8.81	898.838742906	0.181184000	-2.08	0.181064393	 150.000	 -0.015
1656051715.7295749	7.07900	909.580000000	-8.81	898.838742906	0.181184000	-2.09	0.181063702	 150.000	 -0.262
1656051717.9300630	7.07700	909.580000000	-8.81	898.838742906	0.181184000	-2.09	0.181063702	 150.000	 0.283
1656051719.3170030	7.06700	909.430000000	-8.81	898.690514260	0.181153000	-2.09	0.181032723	 150.000	 0.016
1656051720.5261340	7.06300	909.580000000	-8.81	898.838742906	0.181153000	-2.09	0.181032723	 150.000	 1.578
1656051721.7265730	7.05200	909.430000000	-8.81	898.690514260	0.181153000	-2.08	0.181033413	 150.000	 0.070
1656051723.9346819	7.04600	909.430000000	-8.81	898.690514260	0.181123000	-2.09	0.181002743	 150.000	 1.020
1656051725.2714679	7.03600	909.275000000	-8.82	898.522749574	0.181123000	-2.08	0.181003433	 150.000	 -0.420
1656051727.0317659	7.03000	909.275000000	-8.82	898.522749574	0.181123000	-2.08	0.181003433	 150.000	 1.295
1656051728.3518989	7.02300	909.275000000	-8.82	898.522749574	0.181123000	-2.08	0.181003433	 150.000	 -0.331
1656051729.5400829	7.01800	909.275000000	-8.82	898.522749574	0.181123000	-2.08	0.181003433	 150.000	 0.097
1656051730.7358949	7.00700	909.125000000	-8.82	898.374523336	0.181092000	-2.08	0.180973141	 150.000	 1.325
1656051732.9416521	7.00100	909.125000000	-8.82	898.374523336	0.181092000	-2.08	0.180972453	 150.000	 0.952
1656051734.3738301	6.99400	909.125000000	-8.82	898.374523336	0.181062000	-2.09	0.180941783	 150.000	 -0.287
1656051735.5660050	6.98900	909.125000000	-8.82	898.374523336	0.181062000	-2.08	0.180942473	 150.000	 0.040
1656051736.7604620	6.97900	908.970000000	-8.81	898.235946414	0.181031000	-2.08	0.180911494	 150.000	 0.040
1656051738.9639461	6.97100	908.970000000	-8.81	898.235946414	0.181031000	-2.08	0.180912181	 150.000	 1.660
1656051740.3249509	6.96200	908.820000000	-8.81	898.087717768	0.181031000	-2.08	0.180912181	 150.000	 0.583
1656051741.5360820	6.95800	908.820000000	-8.81	898.087717768	0.181031000	-2.08	0.180911494	 150.000	 -0.519
1656051742.7308631	6.94800	908.820000000	-8.81	898.087717768	0.181001000	-2.08	0.180882201	 150.000	 -0.848
1656051744.9380021	6.94200	908.665000000	-8.82	897.919962873	0.181001000	-2.08	0.180882201	 150.000	 0.226
1656051746.2790661	6.92900	908.665000000	-8.82	897.919962873	0.181001000	-2.08	0.180881513	 150.000	 1.691
1656051748.0234110	6.92700	908.665000000	-8.82	897.919962873	0.181001000	-2.08	0.180882201	 150.000	 -0.376
1656051749.3588500	6.92200	908.665000000	-8.81	897.934548168	0.181001000	-2.08	0.180882201	 150.000	 -0.446
1656051750.5490360	6.91200	908.665000000	-8.81	897.934548168	0.180970000	-2.08	0.180850534	 150.000	 0.410
1656051751.7414939	6.90200	908.515000000	-8.81	897.786319522	0.180970000	-2.08	0.180851221	 150.000	 1.363
1656051753.9419680	6.89600	908.515000000	-8.81	897.786319522	0.180940000	-2.08	0.180820554	 150.000	 1.481
1656051755.3797851	6.89100	908.515000000	-8.81	897.786319522	0.180940000	-2.08	0.180820554	 150.000	 1.412
1656051756.5719669	6.88100	908.515000000	-8.81	897.786319522	0.180940000	-2.08	0.180820554	 150.000	 0.045
1656051757.7624300	6.87100	908.360000000	-8.81	897.633149922	0.180940000	-2.08	0.180820554	 150.000	 1.395
1656051759.9555769	6.86600	908.360000000	-8.81	897.633149922	0.180909000	-2.08	0.180789574	 150.000	 1.047
1656051761.3348999	6.85800	908.360000000	-8.81	897.633149922	0.180940000	-2.08	0.180820554	 150.000	 0.602
1656051762.5400381	6.85300	908.360000000	-8.81	897.633149922	0.180909000	-2.08	0.180789574	 150.000	 -0.756
1656051763.7374940	6.84200	908.210000000	-8.81	897.484921276	0.180909000	-2.08	0.180789574	 150.000	 1.669
1656051765.9455969	6.83800	908.210000000	-8.81	897.484921276	0.180909000	-2.08	0.180789574	 150.000	 -0.516
1656051767.2830300	6.82800	908.055000000	-8.81	897.331751676	0.180879000	-2.08	0.180759594	 150.000	 -0.453
1656051768.9735179	6.81700	908.055000000	-8.81	897.331751676	0.180848000	-2.09	0.180727925	 150.000	 0.998
1656051770.2890100	6.81200	908.055000000	-8.81	897.331751676	0.180848000	-2.08	0.180728614	 150.000	 0.245
1656051771.4811871	6.81100	908.055000000	-8.81	897.331751676	0.180879000	-2.08	0.180759594	 150.000	 1.651
1656051772.6680150	6.79900	907.905000000	-8.81	897.198086287	0.180848000	-2.08	0.180728614	 150.000	 0.301
1656051774.8591731	6.79000	907.905000000	-8.81	897.183523030	0.180818000	-2.08	0.180698634	 150.000	 -0.550
1656051776.2075601	6.77900	907.905000000	-8.81	897.198086287	0.180818000	-2.09	0.180697945	 150.000	 -0.756
1656051777.9519191	6.77700	907.905000000	-8.81	897.198086287	0.180818000	-2.08	0.180698634	 150.000	 1.183
1656051779.3647921	6.77000	907.750000000	-8.81	897.030353430	0.180818000	-2.08	0.180698634	 150.000	 1.098
1656051780.5546179	6.76400	907.750000000	-8.81	897.030353430	0.180818000	-2.08	0.180699321	 150.000	 0.373
1656051781.7454400	6.75000	907.750000000	-8.81	897.030353430	0.180787000	-2.08	0.180667655	 150.000	 -0.703
1656051783.9485631	6.74400	907.600000000	-8.81	896.882124784	0.180787000	-2.08	0.180667655	 150.000	 0.901
1656051785.3199069	6.73700	907.600000000	-8.81	896.882124784	0.180787000	-2.08	0.180667655	 150.000	 -0.735
1656051786.5496249	6.73200	907.600000000	-8.81	896.882124784	0.180757000	-2.09	0.180636986	 150.000	 -0.919
1656051787.7524121	6.71900	907.445000000	-8.81	896.728955184	0.180757000	-2.08	0.180637674	 150.000	 1.076
1656051789.9578929	6.71400	907.445000000	-8.81	896.728955184	0.180757000	-2.08	0.180638361	 150.000	 1.188
1656051791.2733769	6.70300	907.445000000	-8.81	896.728955184	0.180726000	-2.08	0.180607381	 150.000	 1.098
1656051792.9638700	6.69700	907.445000000	-8.81	896.728955184	0.180726000	-2.09	0.180606006	 150.000	 -0.139
1656051794.2849860	6.69100	907.290000000	-8.81	896.575785583	0.180726000	-2.08	0.180607381	 150.000	 0.346
1656051795.9748311	6.68300	907.290000000	-8.81	896.575785583	0.180726000	-2.08	0.180606695	 150.000	 1.251
1656051797.3946891	6.67500	907.290000000	-8.81	896.575785583	0.180726000	-2.08	0.180607381	 150.000	 -0.823
1656051798.5845151	6.67000	907.290000000	-8.81	896.590338975	0.180696000	-2.08	0.180576715	 150.000	 1.478
1656051799.7743390	6.66000	907.290000000	-8.81	896.575785583	0.180665000	-2.08	0.180546422	 150.000	 0.579
1656051801.9645000	6.65200	907.140000000	-8.81	896.427556938	0.180665000	-2.08	0.180546422	 150.000	 1.540
1656051803.3478069	6.64600	906.985000000	-8.81	896.274387337	0.180665000	-2.08	0.180546422	 150.000	 -0.416
1656051804.5639160	6.64000	906.985000000	-8.81	896.274387337	0.180634000	-2.08	0.180514756	 150.000	 1.252
1656051805.7613690	6.63000	906.985000000	-8.81	896.274387337	0.180634000	-2.08	0.180515442	 150.000	 -0.471
1656051807.9698441	6.62500	906.985000000	-8.81	896.274387337	0.180634000	-2.08	0.180515442	 150.000	 1.672
1656051809.3022799	6.61100	906.985000000	-8.81	896.274387337	0.180634000	-2.08	0.180515442	 150.000	 1.254
1656051810.9937620	6.60600	906.835000000	-8.81	896.140704785	0.180604000	-2.08	0.180485462	 150.000	 -0.090
1656051812.3012631	6.60000	906.835000000	-8.81	896.140704785	0.180604000	-2.08	0.180485462	 150.000	 0.707
1656051813.4901011	6.59600	906.680000000	-8.81	895.987532698	0.180604000	-2.08	0.180485462	 150.000	 -0.287
1656051814.6809151	6.58300	906.680000000	-8.81	895.987532698	0.180604000	-2.08	0.180485462	 150.000	 0.242
1656051816.8770680	6.57900	906.680000000	-8.81	895.972989091	0.180604000	-2.08	0.180485462	 150.000	 0.470
1656051818.2251129	6.56900	906.530000000	-8.81	895.824760446	0.180573000	-2.08	0.180454482	 150.000	 0.692
1656051819.9728179	6.56000	906.530000000	-8.81	895.824760446	0.180604000	-2.08	0.180484775	 150.000	 1.618
1656051821.3786991	6.55300	906.530000000	-8.81	895.824760446	0.180573000	-2.08	0.180454482	 150.000	 0.707
1656051822.5738690	6.54800	906.530000000	-8.81	895.824760446	0.180573000	-2.08	0.180454482	 150.000	 0.038
1656051823.7746620	6.54100	906.530000000	-8.81	895.824760446	0.180573000	-2.08	0.180453796	 150.000	 1.335
1656051825.4771199	6.53000	906.375000000	-8.81	895.671590845	0.180543000	-2.08	0.180424502	 150.000	 0.410
1656051826.6769280	6.52200	906.375000000	-8.81	895.686129560	0.180543000	-2.08	0.180424502	 150.000	 1.159
1656051828.8786860	6.51400	906.375000000	-8.81	895.671590845	0.180543000	-2.08	0.180424502	 150.000	 -0.408
1656051830.3002419	6.50800	906.225000000	-8.81	895.537898508	0.180512000	-2.08	0.180393522	 150.000	 1.180
1656051831.4930651	6.49900	906.225000000	-8.81	895.537898508	0.180512000	-2.08	0.180393522	 150.000	 -0.082
1656051832.6848841	6.49400	906.070000000	-8.81	895.384726422	0.180482000	-2.08	0.180363542	 150.000	 -0.447
1656051834.8786781	6.48700	906.070000000	-8.81	895.384726422	0.180482000	-2.08	0.180363542	 150.000	 -0.031
1656051836.2503810	6.47400	906.070000000	-8.81	895.384726422	0.180482000	-2.08	0.180363542	 150.000	 0.539
1656051837.9827559	6.46600	906.070000000	-8.81	895.370192599	0.180451000	-2.08	0.180331876	 150.000	 -0.630
1656051839.4149301	6.46200	906.070000000	-8.81	895.370192599	0.180451000	-2.08	0.180331876	 150.000	 -0.023
1656051840.6073940	6.45500	905.920000000	-8.81	895.221963954	0.180451000	-2.08	0.180331876	 150.000	 1.137
1656051841.8002119	6.45100	905.920000000	-8.81	895.221963954	0.180451000	-2.08	0.180332562	 150.000	 0.890
1656051843.4916990	6.43800	905.920000000	-8.81	895.221963954	0.180421000	-2.08	0.180301896	 150.000	 -0.724
1656051844.6898639	6.42500	905.765000000	-8.81	895.068794353	0.180421000	-2.08	0.180301896	 150.000	 -0.783
1656051846.8806570	6.42400	905.765000000	-8.81	895.068794353	0.180421000	-2.08	0.180302582	 150.000	 -0.527
1656051848.3347781	6.41500	905.765000000	-8.81	895.068794353	0.180421000	-2.08	0.180301896	 150.000	 0.771
1656051849.5778160	6.40700	905.765000000	-8.81	895.083323283	0.180390000	-2.08	0.180271602	 150.000	 -0.438
1656051850.7872350	6.39800	905.765000000	-8.81	895.083323283	0.180390000	-2.08	0.180271602	 150.000	 0.503
1656051852.4899530	6.39400	905.615000000	-8.81	894.935092232	0.180390000	-2.08	0.180270917	 150.000	 1.074
1656051853.6865001	6.38200	905.615000000	-8.81	894.920565708	0.180390000	-2.08	0.180270917	 150.000	 0.653
1656051855.8866301	6.37600	905.615000000	-8.81	894.920565708	0.180360000	-2.08	0.180240937	 150.000	 -0.065
1656051857.2629550	6.36600	905.460000000	-8.81	894.767396107	0.180360000	-2.08	0.180240937	 150.000	 0.978
1656051858.4900479	6.36000	905.460000000	-8.81	894.767396107	0.180360000	-2.08	0.180240937	 150.000	 1.171
1656051859.6898420	6.34900	905.460000000	-8.81	894.781920145	0.180360000	-2.08	0.180240937	 150.000	 1.508
1656051861.8889699	6.34100	905.460000000	-8.81	894.767396107	0.180360000	-2.08	0.180241622	 150.000	 0.438
1656051863.2323949	6.32900	905.310000000	-8.81	894.633689093	0.180299000	-2.08	0.180180662	 150.000	 1.452
1656051864.9205270	6.32400	905.310000000	-8.81	894.633689093	0.180299000	-2.08	0.180180662	 150.000	 -0.755
1656051866.3616800	6.31400	905.155000000	-8.81	894.480517007	0.180299000	-2.08	0.180179977	 150.000	 -0.128
1656051867.5894060	6.30400	905.155000000	-8.81	894.480517007	0.180299000	-2.08	0.180179977	 150.000	 -0.458
1656051868.7902019	6.29800	905.155000000	-8.81	894.480517007	0.180299000	-2.08	0.180179977	 150.000	 -0.502
1656051870.4926591	6.29100	905.155000000	-8.81	894.480517007	0.180268000	-2.08	0.180149682	 150.000	 -0.817
1656051871.6924601	6.28100	905.005000000	-8.81	894.332285955	0.180268000	-2.08	0.180149682	 150.000	 1.291
1656051873.8939450	6.27000	905.005000000	-8.81	894.317769216	0.180268000	-2.08	0.180149682	 150.000	 0.148
1656051875.2898610	6.26300	905.005000000	-8.81	894.317769216	0.180238000	-2.08	0.180119702	 150.000	 -0.910
1656051877.0042861	6.25500	905.005000000	-8.81	894.317769216	0.180238000	-2.08	0.180119017	 150.000	 0.301
1656051878.4524231	6.24800	904.850000000	-8.81	894.164599615	0.180238000	-2.08	0.180119017	 150.000	 -0.490
1656051879.6984529	6.24400	904.850000000	-8.81	894.179113868	0.180238000	-2.08	0.180119017	 150.000	 1.060
1656051880.8969009	6.23500	904.700000000	-8.81	894.030882817	0.180207000	-2.08	0.180088722	 150.000	 1.558
1656051882.5977271	6.22800	904.700000000	-8.81	894.030882817	0.180207000	-2.08	0.180088722	 150.000	 0.873
1656051883.7991581	6.22100	904.700000000	-8.81	894.030882817	0.180207000	-2.08	0.180088722	 150.000	 1.355
1656051885.5018420	6.21100	904.700000000	-8.81	894.030882817	0.180207000	-2.07	0.180089405	 150.000	 0.868
1656051886.6954300	6.20600	904.700000000	-8.81	894.030882817	0.180207000	-2.07	0.180089405	 150.000	 -0.378
1656051888.8965580	6.19500	904.545000000	-8.81	893.877710730	0.180177000	-2.08	0.180058057	 150.000	 -0.754
1656051890.3496799	6.19000	904.545000000	-8.81	893.877710730	0.180177000	-2.07	0.180059424	 150.000	 0.610
1656051891.5996909	6.18400	904.545000000	-8.81	893.863201369	0.180177000	-2.08	0.180058742	 150.000	 1.749
1656051892.7981479	6.17400	904.395000000	-8.81	893.729479678	0.180146000	-2.07	0.180028445	 150.000	 0.282
1656051894.5035970	6.16600	904.395000000	-8.81	893.729479678	0.180116000	-2.08	0.179997782	 150.000	 1.450
1656051895.7024000	6.15700	904.240000000	-8.81	893.576307592	0.180116000	-2.08	0.179997782	 150.000	 0.216
1656051897.9006090	6.15000	904.240000000	-8.81	893.576307592	0.180116000	-2.07	0.179998464	 150.000	 0.137
1656051899.2762101	6.14700	904.240000000	-8.81	893.576307592	0.180116000	-2.07	0.179998464	 150.000	 0.994
1656051900.5065780	6.13600	904.240000000	-8.81	893.576307592	0.180085000	-2.08	0.179966802	 150.000	 0.272
1656051901.7013929	6.12700	904.090000000	-8.81	893.428076540	0.180085000	-2.08	0.179966802	 150.000	 1.363
1656051903.9008811	6.11900	904.090000000	-8.81	893.428076540	0.180085000	-2.08	0.179966802	 150.000	 -0.258
1656051905.2599030	6.11600	904.090000000	-8.81	893.428076540	0.180085000	-2.08	0.179966802	 150.000	 -0.651
1656051906.5135550	6.10800	904.090000000	-8.81	893.428076540	0.180055000	-2.08	0.179936822	 150.000	 0.866
1656051907.7073679	6.09600	903.935000000	-8.81	893.260404877	0.180055000	-2.08	0.179936822	 150.000	 -0.651
1656051909.9114900	6.08800	903.935000000	-8.81	893.274904453	0.180024000	-2.08	0.179905842	 150.000	 -0.226
1656051911.3546381	6.08600	903.935000000	-8.81	893.260404877	0.180055000	-2.08	0.179936822	 150.000	 -0.512
1656051912.6056550	6.07900	903.785000000	-8.81	893.112176232	0.180024000	-2.08	0.179905842	 150.000	 1.393
1656051913.8021090	6.07000	903.785000000	-8.81	893.126673402	0.180024000	-2.08	0.179905842	 150.000	 1.638
1656051915.5085571	6.06100	903.785000000	-8.81	893.126673402	0.179994000	-2.08	0.179875178	 150.000	 1.587
1656051916.7033679	6.05400	903.785000000	-8.81	893.126673402	0.179994000	-2.08	0.179875862	 150.000	 0.778
1656051918.9054940	6.04700	903.630000000	-8.81	892.973501315	0.179994000	-2.08	0.179875862	 150.000	 -0.022
1656051920.2818179	6.04000	903.630000000	-8.81	892.973501315	0.179994000	-2.08	0.179875862	 150.000	 1.187
1656051921.5095479	6.03100	903.630000000	-8.81	892.973501315	0.179994000	-2.08	0.179875862	 150.000	 0.660
1656051922.7033610	6.02000	903.480000000	-8.81	892.825270263	0.179933000	-2.08	0.179814902	 150.000	 1.694
1656051924.9068360	6.01100	903.480000000	-8.81	892.825270263	0.179933000	-2.08	0.179814218	 150.000	 0.348
1656051926.2658570	6.00700	903.325000000	-8.81	892.672098177	0.179933000	-2.08	0.179814218	 150.000	 1.710
1656051927.5098979	6.00400	903.325000000	-8.81	892.672098177	0.179933000	-2.08	0.179814902	 150.000	 -0.812
1656051928.7063470	5.99300	903.325000000	-8.81	892.672098177	0.179902000	-2.08	0.179783239	 150.000	 0.120
1656051930.9108160	5.98400	903.325000000	-8.81	892.672098177	0.179902000	-2.07	0.179784604	 150.000	 1.061
1656051932.3619349	5.97800	903.325000000	-8.81	892.672098177	0.179902000	-2.08	0.179783922	 150.000	 1.327
1656051933.6066270	5.97000	903.170000000	-8.81	892.518926090	0.179872000	-2.08	0.179753942	 150.000	 1.417
1656051934.8140500	5.96400	903.170000000	-8.81	892.518926090	0.179902000	-2.08	0.179783922	 150.000	 -0.757
1656051936.5095241	5.95300	903.170000000	-8.81	892.518926090	0.179872000	-2.08	0.179753259	 150.000	 -0.366
1656051937.7093210	5.94400	903.020000000	-8.81	892.370695038	0.179872000	-2.08	0.179753942	 150.000	 0.461
1656051939.9094529	5.93700	903.020000000	-8.80	892.385170151	0.179872000	-2.08	0.179753942	 150.000	 -0.856
1656051941.2887750	5.93300	903.020000000	-8.80	892.385170151	0.179872000	-2.08	0.179753942	 150.000	 0.060
1656051942.5125120	5.92400	902.865000000	-8.81	892.217522951	0.179841000	-2.07	0.179723644	 150.000	 1.229
1656051943.7076681	5.91500	902.865000000	-8.81	892.217522951	0.179841000	-2.08	0.179722962	 150.000	 0.588
1656051945.9114399	5.90900	902.865000000	-8.81	892.217522951	0.179841000	-2.08	0.179722962	 150.000	 1.586
1656051947.2548540	5.90100	902.865000000	-8.81	892.217522951	0.179811000	-2.07	0.179693663	 150.000	 0.348
1656051949.0035341	5.89500	902.715000000	-8.81	892.069291900	0.179811000	-2.07	0.179693663	 150.000	 0.453
1656051950.4283881	5.88100	902.715000000	-8.81	892.069291900	0.179811000	-2.08	0.179692982	 150.000	 0.243
1656051951.6205621	5.87700	902.715000000	-8.81	892.069291900	0.179811000	-2.08	0.179692982	 150.000	 -0.337
1656051952.8123050	5.87200	902.715000000	-8.81	892.069291900	0.179780000	-2.08	0.179662002	 150.000	 1.461
1656051954.5168350	5.86500	902.560000000	-8.81	891.916119813	0.179780000	-2.07	0.179662683	 150.000	 -0.674
1656051955.7156310	5.85700	902.560000000	-8.81	891.916119813	0.179749000	-2.07	0.179631704	 150.000	 1.482
1656051957.9157691	5.84500	902.410000000	-8.80	891.782354096	0.179749000	-2.08	0.179631023	 150.000	 1.462
1656051959.3206630	5.83700	902.410000000	-8.80	891.782354096	0.179749000	-2.07	0.179631704	 150.000	 1.234
1656051960.5224540	5.83300	902.410000000	-8.81	891.767888761	0.179719000	-2.07	0.179601723	 150.000	 -0.582
1656051961.7112830	5.81800	902.255000000	-8.81	891.614716675	0.179719000	-2.08	0.179601042	 150.000	 0.169
1656051963.9144070	5.81400	902.255000000	-8.81	891.614716675	0.179719000	-2.07	0.179601723	 150.000	 -0.865
1656051965.2701380	5.80400	902.255000000	-8.81	891.614716675	0.179688000	-2.07	0.179570743	 150.000	 -0.476
1656051967.0234711	5.79800	902.105000000	-8.81	891.466485623	0.179688000	-2.07	0.179570743	 150.000	 1.408
1656051968.4562860	5.79000	902.105000000	-8.81	891.466485623	0.179688000	-2.07	0.179570743	 150.000	 -0.722
1656051969.6461110	5.78800	902.105000000	-8.81	891.466485623	0.179688000	-2.07	0.179570743	 150.000	 1.415
1656051970.8379340	5.77900	902.105000000	-8.81	891.466485623	0.179658000	-2.07	0.179540763	 150.000	 0.653
1656051972.5284250	5.77200	902.105000000	-8.81	891.466485623	0.179658000	-2.08	0.179540082	 150.000	 -0.697
1656051973.7272251	5.76000	901.950000000	-8.81	891.313313536	0.179658000	-2.08	0.179540082	 150.000	 -0.203
1656051975.9267089	5.75200	901.950000000	-8.81	891.313313536	0.179658000	-2.08	0.179540082	 150.000	 -0.719
1656051977.3495591	5.74700	901.950000000	-8.81	891.313313536	0.179627000	-2.07	0.179509783	 150.000	 1.828
1656051978.5473680	5.74000	901.950000000	-8.81	891.313313536	0.179597000	-2.07	0.179479803	 150.000	 1.505
1656051979.7361929	5.72800	901.800000000	-8.81	891.165082485	0.179597000	-2.07	0.179479803	 150.000	 -0.761
1656051981.9267049	5.72100	901.800000000	-8.81	891.165082485	0.179597000	-2.08	0.179479122	 150.000	 0.091
1656051983.3020329	5.71300	901.645000000	-8.80	891.026363470	0.179566000	-2.07	0.179448823	 150.000	 -0.875
1656051985.0324180	5.70800	901.645000000	-8.81	891.011910398	0.179566000	-2.08	0.179448143	 150.000	 0.992
1656051986.3449180	5.69600	901.495000000	-8.80	890.878130014	0.179566000	-2.08	0.179448143	 150.000	 1.471
1656051988.0384040	5.69000	901.495000000	-8.81	890.863679346	0.179566000	-2.08	0.179447461	 150.000	 0.219
1656051989.3465500	5.68200	901.495000000	-8.80	890.878130014	0.179566000	-2.07	0.179448823	 150.000	 0.061
1656051991.0393920	5.67600	901.340000000	-8.80	890.724955443	0.179536000	-2.08	0.179418163	 150.000	 1.235
1656051992.4622390	5.66900	901.340000000	-8.80	890.724955443	0.179536000	-2.07	0.179418843	 150.000	 0.896
1656051993.6490710	5.66100	901.340000000	-8.80	890.724955443	0.179536000	-2.07	0.179418843	 150.000	 0.924
1656051994.8408940	5.65200	901.340000000	-8.81	890.710507260	0.179505000	-2.07	0.179387863	 150.000	 0.383
1656051996.5323811	5.64600	901.340000000	-8.81	890.710507260	0.179505000	-2.08	0.179387183	 150.000	 0.174
1656051997.7325411	5.63200	901.190000000	-8.81	890.562276208	0.179505000	-2.07	0.179387863	 150.000	 1.594
1656051999.9313121	5.62600	901.190000000	-8.81	890.562276208	0.179505000	-2.08	0.179387183	 150.000	 0.299
1656052001.3315780	5.62200	901.190000000	-8.81	890.562276208	0.179505000	-2.07	0.179387863	 150.000	 1.619
1656052002.5333681	5.61400	901.190000000	-8.81	890.562276208	0.179475000	-2.07	0.179357882	 150.000	 -0.652
1656052003.7325251	5.60000	901.035000000	-8.81	890.409104121	0.179475000	-2.08	0.179357203	 150.000	 -0.645
1656052005.9332991	5.59100	901.035000000	-8.81	890.409104121	0.179444000	-2.07	0.179326903	 150.000	 1.335
1656052007.2890260	5.58800	900.885000000	-8.80	890.275313959	0.179444000	-2.07	0.179326903	 150.000	 0.496
1656052008.5436890	5.57500	900.885000000	-8.80	890.275313959	0.179414000	-2.07	0.179296922	 150.000	 1.211
1656052009.7345109	5.56300	900.730000000	-8.81	890.107700983	0.179414000	-2.06	0.179297600	 150.000	 0.987
1656052011.9406309	5.55800	900.730000000	-8.81	890.107700983	0.179383000	-2.07	0.179265942	 150.000	 -0.754
1656052013.4695520	5.54800	900.580000000	-8.81	889.959469931	0.179383000	-2.07	0.179265942	 150.000	 -0.752
1656052014.6603811	5.54700	900.580000000	-8.81	889.959469931	0.179383000	-2.07	0.179265942	 150.000	 0.266
1656052015.8521950	5.53600	900.580000000	-8.81	889.959469931	0.179383000	-2.07	0.179265942	 150.000	 -0.730
1656052017.5436771	5.52900	900.425000000	-8.80	889.820731361	0.179353000	-2.07	0.179235962	 150.000	 -0.308
1656052018.7391319	5.51700	900.425000000	-8.80	889.820731361	0.179353000	-2.07	0.179235962	 150.000	 1.527
1656052020.9372640	5.51500	900.425000000	-8.80	889.820731361	0.179353000	-2.07	0.179235962	 150.000	 0.913
1656052022.3385279	5.50800	900.425000000	-8.80	889.820731361	0.179322000	-2.07	0.179204982	 150.000	 1.497
1656052023.5374300	5.50300	900.275000000	-8.80	889.672497904	0.179322000	-2.06	0.179205660	 150.000	 0.098
1656052024.7401199	5.49000	900.275000000	-8.80	889.672497904	0.179322000	-2.07	0.179204982	 150.000	 0.020
1656052026.9432399	5.48000	900.275000000	-8.80	889.672497904	0.179292000	-2.07	0.179175002	 150.000	 1.044
1656052028.2966299	5.47500	900.120000000	-8.81	889.504894706	0.179292000	-2.07	0.179175002	 150.000	 0.099
1656052029.5572679	5.47100	900.120000000	-8.81	889.504894706	0.179292000	-2.07	0.179175002	 150.000	 -0.191
1656052030.7490859	5.45900	900.120000000	-8.80	889.519323333	0.179292000	-2.07	0.179175002	 150.000	 1.168
1656052032.9412370	5.45300	900.120000000	-8.80	889.519323333	0.179261000	-2.07	0.179144022	 150.000	 -0.796
1656052034.4751470	5.44600	899.970000000	-8.80	889.371089877	0.179261000	-2.07	0.179144022	 150.000	 1.507
1656052035.6693189	5.43900	899.970000000	-8.80	889.371089877	0.179231000	-2.07	0.179114042	 150.000	 -0.639
1656052036.8621540	5.43200	899.815000000	-8.80	889.217915306	0.179231000	-2.07	0.179114042	 150.000	 0.942
1656052038.5566030	5.42100	899.815000000	-8.80	889.217915306	0.179231000	-2.07	0.179114042	 150.000	 1.182
1656052039.7480791	5.41000	899.665000000	-8.80	889.069681850	0.179200000	-2.07	0.179083062	 150.000	 1.684
1656052041.9502060	5.40800	899.665000000	-8.80	889.069681850	0.179200000	-2.07	0.179083062	 150.000	 1.416
1656052043.3474741	5.40300	899.665000000	-8.80	889.069681850	0.179200000	-2.07	0.179083062	 150.000	 -0.932
1656052044.5496349	5.39100	899.510000000	-8.80	888.916507278	0.179170000	-2.08	0.179052403	 150.000	 1.009
1656052045.7480710	5.38800	899.510000000	-8.80	888.916507278	0.179170000	-2.07	0.179053081	 150.000	 0.947
1656052047.9482040	5.38000	899.510000000	-8.80	888.916507278	0.179170000	-2.07	0.179053081	 150.000	 1.371
1656052049.3009470	5.36800	899.360000000	-8.80	888.768273822	0.179139000	-2.08	0.179021423	 150.000	 0.771
1656052051.0462880	5.35800	899.360000000	-8.80	888.768273822	0.179139000	-2.07	0.179022102	 150.000	 1.652
1656052052.3783810	5.35300	899.360000000	-8.80	888.768273822	0.179139000	-2.07	0.179022102	 150.000	 0.242
1656052053.5662110	5.34700	899.360000000	-8.80	888.768273822	0.179139000	-2.07	0.179022102	 150.000	 1.178
1656052054.7603810	5.33600	899.205000000	-8.80	888.615099251	0.179109000	-2.07	0.178992121	 150.000	 1.103
1656052056.9621480	5.32700	899.205000000	-8.80	888.615099251	0.179078000	-2.08	0.178960463	 150.000	 -0.042
1656052058.4023111	5.32200	899.205000000	-8.80	888.615099251	0.179078000	-2.07	0.178961141	 150.000	 1.335
1656052059.6559651	5.31300	899.055000000	-8.80	888.466865795	0.179078000	-2.07	0.178961141	 150.000	 -0.471
1656052060.8657360	5.30500	899.055000000	-8.80	888.466865795	0.179048000	-2.07	0.178931161	 150.000	 1.584
1656052063.0718510	5.30000	899.055000000	-8.80	888.466865795	0.179048000	-2.07	0.178931161	 150.000	 1.347
1656052064.5010350	5.29500	899.055000000	-8.80	888.466865795	0.179048000	-2.07	0.178931161	 150.000	 -0.720
1656052065.6928570	5.28700	898.900000000	-8.80	888.313691224	0.179017000	-2.08	0.178899503	 150.000	 0.724
1656052066.8830440	5.27300	898.745000000	-8.80	888.160516652	0.179017000	-2.07	0.178900181	 150.000	 -0.393
1656052068.5755219	5.26800	898.745000000	-8.80	888.160516652	0.179017000	-2.07	0.178900181	 150.000	 -0.452
1656052069.7663441	5.25900	898.745000000	-8.80	888.160516652	0.179017000	-2.06	0.178900857	 150.000	 0.502
1656052071.9641271	5.25200	898.745000000	-8.80	888.160516652	0.178987000	-2.07	0.178870201	 150.000	 0.229
1656052073.3118889	5.24100	898.595000000	-8.81	887.997879015	0.178956000	-2.06	0.178839897	 150.000	 -0.357
1656052075.0558770	5.23700	898.595000000	-8.80	888.012283196	0.178956000	-2.07	0.178839221	 150.000	 1.037
1656052076.5040100	5.23500	898.595000000	-8.80	888.012283196	0.178987000	-2.06	0.178870877	 150.000	 -0.903
1656052077.6961920	5.22100	898.440000000	-8.80	887.859108625	0.178956000	-2.07	0.178839221	 150.000	 1.447
1656052078.8866570	5.21000	898.440000000	-8.80	887.859108625	0.178956000	-2.07	0.178839221	 150.000	 1.421
1656052080.5785100	5.20300	898.440000000	-8.80	887.859108625	0.178926000	-2.07	0.178809241	 150.000	 0.642
1656052081.7689619	5.19700	898.290000000	-8.80	887.710875169	0.178926000	-2.07	0.178809241	 150.000	 1.303
1656052083.9674549	5.19100	898.290000000	-8.80	887.710875169	0.178926000	-2.06	0.178810590	 150.000	 1.735
1656052085.3633721	5.18600	898.290000000	-8.80	887.725264726	0.178895000	-2.06	0.178778937	 150.000	 -0.512
1656052086.5715060	5.17100	898.135000000	-8.80	887.572087672	0.178864000	-2.06	0.178747957	 150.000	 -0.666
1656052087.7683120	5.16800	898.135000000	-8.80	887.572087672	0.178864000	-2.06	0.178747957	 150.000	 0.839
1656052089.9724340	5.15500	897.985000000	-8.80	887.409467141	0.178834000	-2.07	0.178717301	 150.000	 1.659
1656052091.3198271	5.15100	897.985000000	-8.80	887.409467141	0.178834000	-2.07	0.178717301	 150.000	 1.067
1656052093.0621920	5.14200	897.830000000	-8.80	887.256292570	0.178834000	-2.07	0.178717301	 150.000	 1.220
1656052094.4085879	5.13500	897.830000000	-8.80	887.256292570	0.178834000	-2.06	0.178717976	 150.000	 -0.822
1656052095.5970709	5.12700	897.830000000	-8.80	887.256292570	0.178834000	-2.06	0.178717976	 150.000	 1.562
1656052096.7912409	5.12000	897.680000000	-8.80	887.108059114	0.178803000	-2.07	0.178686321	 150.000	 -0.545
1656052098.9850340	5.11100	897.680000000	-8.80	887.108059114	0.178803000	-2.07	0.178686321	 150.000	 0.632
1656052100.4152250	5.10900	897.680000000	-8.80	887.108059114	0.178803000	-2.06	0.178686996	 150.000	 -0.775
1656052101.6083951	5.09700	897.525000000	-8.80	886.954884543	0.178773000	-2.07	0.178656340	 150.000	 0.585
1656052102.8022010	5.08700	897.525000000	-8.80	886.954884543	0.178773000	-2.07	0.178656340	 150.000	 1.446
1656052104.9920051	5.08200	897.525000000	-8.80	886.954884543	0.178773000	-2.07	0.178656340	 150.000	 1.031
1656052106.3753140	5.07000	897.525000000	-8.80	886.954884543	0.178742000	-2.06	0.178626036	 150.000	 0.934
1656052107.5850880	5.06400	897.375000000	-8.80	886.806651087	0.178742000	-2.07	0.178625361	 150.000	 -0.382
1656052108.7838869	5.05300	897.375000000	-8.80	886.806651087	0.178712000	-2.07	0.178595380	 150.000	 -0.478
1656052110.9873841	5.04600	897.375000000	-8.80	886.806651087	0.178681000	-2.06	0.178565075	 150.000	 1.002
1656052112.3274341	5.03400	897.070000000	-8.80	886.519613074	0.178681000	-2.06	0.178565075	 150.000	 -0.530
1656052114.0209150	5.02900	897.070000000	-8.80	886.519613074	0.178681000	-2.07	0.178564401	 150.000	 1.601
1656052115.3334141	5.02200	897.070000000	-8.80	886.519613074	0.178681000	-2.07	0.178564401	 150.000	 -0.534
1656052117.0837440	5.01400	896.915000000	-8.80	886.352068488	0.178651000	-2.06	0.178535095	 150.000	 0.419
1656052118.4693961	5.01000	896.915000000	-8.80	886.352068488	0.178651000	-2.06	0.178535095	 150.000	 -0.765
1656052119.6951311	5.00300	896.915000000	-8.80	886.352068488	0.178651000	-2.08	0.178533743	 150.000	 0.222
1656052120.8969200	4.99200	896.915000000	-8.80	886.352068488	0.178620000	-2.06	0.178504115	 150.000	 1.567
1656052122.5934069	4.98200	896.765000000	-8.80	886.203835032	0.178620000	-2.06	0.178504115	 150.000	 0.395
1656052123.7878590	4.97300	896.765000000	-8.80	886.218200161	0.178590000	-2.07	0.178473460	 150.000	 -0.770
1656052125.9853499	4.96700	896.610000000	-8.80	886.065023106	0.178590000	-2.06	0.178474134	 150.000	 -0.702
1656052127.3752861	4.96100	896.610000000	-8.80	886.065023106	0.178559000	-2.07	0.178442480	 150.000	 -0.809
1656052128.5980251	4.95400	896.610000000	-8.80	886.065023106	0.178559000	-2.06	0.178443155	 150.000	 -0.546
1656052129.7912049	4.94300	896.460000000	-8.80	885.902427004	0.178559000	-2.06	0.178443155	 150.000	 1.441
1656052131.9893310	4.93700	896.460000000	-8.80	885.902427004	0.178559000	-2.06	0.178443155	 150.000	 -0.127
1656052133.3333890	4.93700	896.460000000	-8.80	885.902427004	0.178559000	-2.06	0.178443155	 150.000	 0.723
1656052134.5252099	4.92700	896.305000000	-8.80	885.749252433	0.178498000	-2.06	0.178382194	 150.000	 -0.288
1656052135.7150359	4.91100	896.155000000	-8.80	885.615374334	0.178498000	-2.06	0.178382866	 150.000	 1.355
1656052137.9091821	4.90900	896.155000000	-8.80	885.601018977	0.178498000	-2.06	0.178382194	 150.000	 0.180
1656052139.1000030	4.90200	896.155000000	-8.80	885.615374334	0.178468000	-2.06	0.178352214	 150.000	 1.086
1656052140.7944839	4.89800	896.155000000	-8.80	885.615374334	0.178468000	-2.06	0.178352214	 150.000	 0.221
1656052141.9922891	4.88500	896.000000000	-8.80	885.447844406	0.178437000	-2.06	0.178321234	 150.000	 -0.643
1656052143.6911130	4.87900	896.000000000	-8.80	885.447844406	0.178437000	-2.06	0.178321906	 150.000	 0.972
1656052144.8929269	4.87200	895.850000000	-8.80	885.299610950	0.178437000	-2.06	0.178321234	 150.000	 -0.027
1656052146.5963609	4.86200	895.695000000	-8.80	885.160784367	0.178437000	-2.06	0.178321234	 150.000	 1.827
1656052147.8017869	4.85100	895.695000000	-8.80	885.160784367	0.178407000	-2.06	0.178291253	 150.000	 -0.738
1656052149.9959331	4.85100	895.695000000	-8.80	885.160784367	0.178407000	-2.06	0.178291253	 150.000	 1.000
1656052151.3586431	4.83700	895.545000000	-8.80	885.012548508	0.178376000	-2.06	0.178260273	 150.000	 0.153
1656052152.5979929	4.83800	895.545000000	-8.80	885.012548508	0.178407000	-2.06	0.178291253	 150.000	 -0.207
1656052153.8037729	4.82100	895.545000000	-8.80	885.012548508	0.178376000	-2.06	0.178260273	 150.000	 1.416
1656052155.5035830	4.81600	895.390000000	-8.80	884.859371454	0.178346000	-2.06	0.178230293	 150.000	 -0.020
1656052156.7020400	4.80600	895.390000000	-8.80	884.845028351	0.178315000	-2.07	0.178198639	 150.000	 -0.665
1656052158.9035270	4.80400	895.390000000	-8.80	884.845028351	0.178315000	-2.07	0.178198639	 150.000	 1.260
1656052160.1113060	4.79200	895.240000000	-8.80	884.711135595	0.178315000	-2.06	0.178199313	 150.000	 0.277
1656052161.8094540	4.78800	895.085000000	-8.80	884.557958541	0.178315000	-2.07	0.178198639	 150.000	 1.400
1656052163.0075619	4.77200	895.085000000	-8.80	884.557958541	0.178285000	-2.07	0.178168659	 150.000	 -0.449
1656052164.7126660	4.77100	895.085000000	-8.80	884.557958541	0.178285000	-2.06	0.178169332	 150.000	 0.423
1656052165.9004951	4.75900	894.935000000	-8.80	884.409722682	0.178224000	-2.06	0.178108372	 150.000	 1.155
1656052167.6092999	4.75200	894.935000000	-8.80	884.409722682	0.178224000	-2.06	0.178108372	 150.000	 -0.801
1656052168.8060989	4.75200	894.935000000	-8.80	884.409722682	0.178254000	-2.06	0.178138352	 150.000	 -0.567
1656052170.5062079	4.74400	894.780000000	-8.80	884.256545628	0.178224000	-2.06	0.178108372	 150.000	 0.654
1656052171.7093570	4.73200	894.630000000	-8.80	884.108309769	0.178224000	-2.06	0.178108372	 150.000	 0.505
1656052173.9081340	4.71900	894.630000000	-8.80	884.108309769	0.178193000	-2.07	0.178076719	 150.000	 -0.479
1656052175.1132801	4.71600	894.630000000	-8.80	884.108309769	0.178193000	-2.06	0.178077392	 150.000	 -0.569
1656052176.8073990	4.70500	894.475000000	-8.80	883.955132715	0.178193000	-2.06	0.178077392	 150.000	 1.380
1656052178.0062010	4.70100	894.475000000	-8.80	883.955132715	0.178163000	-2.06	0.178047411	 150.000	 1.758
1656052179.7209849	4.69100	894.320000000	-8.80	883.801955660	0.178132000	-2.06	0.178016432	 150.000	 0.138
1656052180.9128060	4.68400	894.320000000	-8.80	883.801955660	0.178132000	-2.06	0.178016432	 150.000	 1.329
1656052182.6149039	4.67800	894.170000000	-8.80	883.639396241	0.178132000	-2.06	0.178016432	 150.000	 0.239
1656052183.8110640	4.66600	894.170000000	-8.80	883.653719801	0.178102000	-2.06	0.177987122	 150.000	 -0.518
1656052185.5141649	4.66200	894.170000000	-8.80	883.653719801	0.178102000	-2.06	0.177986451	 150.000	 0.245
1656052186.7099750	4.64500	894.015000000	-8.80	883.500542747	0.178071000	-2.06	0.177955471	 150.000	 -0.478
1656052188.9103980	4.64100	894.015000000	-8.80	883.500542747	0.178041000	-2.06	0.177926161	 150.000	 0.081
1656052190.1202359	4.63700	893.865000000	-8.80	883.352306888	0.178041000	-2.06	0.177926161	 150.000	 1.274
1656052191.8137290	4.63000	893.865000000	-8.80	883.352306888	0.178041000	-2.06	0.177926161	 150.000	 1.702
1656052193.0161531	4.61500	893.865000000	-8.80	883.352306888	0.178010000	-2.06	0.177895181	 150.000	 -0.399
1656052194.7269621	4.61500	893.710000000	-8.80	883.199129834	0.178010000	-2.06	0.177895181	 150.000	 -0.704
1656052195.9197609	4.60600	893.710000000	-8.80	883.199129834	0.178010000	-2.05	0.177895850	 150.000	 -0.443
1656052197.6192350	4.59700	893.560000000	-8.80	883.050893975	0.177979000	-2.06	0.177863531	 150.000	 0.006
1656052198.8130419	4.58800	893.405000000	-8.80	882.897716921	0.177949000	-2.06	0.177834220	 150.000	 1.495
1656052200.5151470	4.58500	893.405000000	-8.79	882.912018544	0.177949000	-2.06	0.177833550	 150.000	 -0.130
1656052201.7139461	4.57200	893.255000000	-8.79	882.763780284	0.177918000	-2.06	0.177802570	 150.000	 -0.489
1656052203.9094460	4.56200	893.255000000	-8.80	882.749481062	0.177888000	-2.06	0.177772590	 150.000	 1.219
1656052205.1202250	4.55500	893.100000000	-8.80	882.596304008	0.177888000	-2.06	0.177772590	 150.000	 1.418
1656052206.8126979	4.54700	893.100000000	-8.80	882.596304008	0.177888000	-2.06	0.177772590	 150.000	 1.139
1656052208.0134850	4.54200	893.100000000	-8.80	882.596304008	0.177857000	-2.06	0.177741610	 150.000	 0.081
1656052209.7179501	4.54000	892.950000000	-8.80	882.448068149	0.177888000	-2.06	0.177772590	 150.000	 0.534
1656052210.9177499	4.53300	892.950000000	-8.80	882.448068149	0.177857000	-2.06	0.177741610	 150.000	 1.490
1656052212.6218450	4.52800	892.950000000	-8.80	882.448068149	0.177857000	-2.06	0.177741610	 150.000	 1.470
1656052213.8229830	4.51400	892.795000000	-8.80	882.294891095	0.177827000	-2.06	0.177711629	 150.000	 0.292
1656052215.5143530	4.50700	892.795000000	-8.80	882.294891095	0.177827000	-2.06	0.177711629	 150.000	 0.212
1656052216.7169180	4.49600	892.645000000	-8.80	882.146655236	0.177766000	-2.06	0.177650669	 150.000	 0.461
1656052218.9203939	4.49200	892.490000000	-8.80	881.993478181	0.177766000	-2.06	0.177651339	 150.000	 -0.463
1656052220.1258230	4.48000	892.490000000	-8.80	881.993478181	0.177766000	-2.06	0.177650669	 150.000	 -0.554
1656052221.8144100	4.47300	892.340000000	-8.79	881.859526898	0.177735000	-2.06	0.177619689	 150.000	 -0.873
1656052223.0161109	4.47000	892.340000000	-8.79	881.859526898	0.177735000	-2.06	0.177620359	 150.000	 -0.336
1656052224.7169271	4.46100	892.185000000	-8.79	881.706347362	0.177705000	-2.06	0.177590378	 150.000	 0.807
1656052225.9153819	4.45100	892.185000000	-8.80	881.692065268	0.177705000	-2.06	0.177590378	 150.000	 1.447
1656052227.6191871	4.44500	892.185000000	-8.80	881.692065268	0.177674000	-2.06	0.177558729	 150.000	 -0.891
1656052228.8279560	4.43500	892.035000000	-8.80	881.543829409	0.177674000	-2.06	0.177559398	 150.000	 1.364
1656052230.5204439	4.42800	892.035000000	-8.79	881.558109102	0.177674000	-2.06	0.177558729	 150.000	 -0.720
1656052231.7212300	4.41600	891.880000000	-8.79	881.404929567	0.177644000	-2.06	0.177529417	 150.000	 1.358
1656052233.9190221	4.41600	891.880000000	-8.80	881.390652355	0.177644000	-2.06	0.177528748	 150.000	 -0.755
1656052235.2793911	4.40400	891.730000000	-8.79	881.256691306	0.177613000	-2.06	0.177497768	 150.000	 0.356
1656052236.5174510	4.39800	891.575000000	-8.79	881.103511771	0.177583000	-2.06	0.177468457	 150.000	 1.058
1656052237.7208779	4.38900	891.575000000	-8.79	881.103511771	0.177583000	-2.06	0.177468457	 150.000	 -0.262
1656052239.9203651	4.38500	891.425000000	-8.79	880.955273511	0.177552000	-2.06	0.177437477	 150.000	 -0.273
1656052241.1241529	4.37600	891.425000000	-8.79	880.955273511	0.177552000	-2.06	0.177437477	 150.000	 0.006
1656052242.8206301	4.36700	891.270000000	-8.79	880.802093975	0.177552000	-2.06	0.177437477	 150.000	 0.123
1656052244.0234151	4.36100	891.270000000	-8.79	880.802093975	0.177522000	-2.06	0.177407496	 150.000	 0.360
1656052245.7218909	4.35900	891.270000000	-8.79	880.802093975	0.177522000	-2.06	0.177407496	 150.000	 1.547
1656052246.9286749	4.34200	891.120000000	-8.80	880.639590670	0.177491000	-2.06	0.177376516	 150.000	 1.540
1656052248.6267810	4.33900	890.965000000	-8.80	880.486413616	0.177461000	-2.06	0.177345867	 150.000	 1.591
1656052249.8209391	4.33200	890.965000000	-8.80	880.486413616	0.177461000	-2.05	0.177347202	 150.000	 1.110
1656052251.5190649	4.32600	890.965000000	-8.79	880.500676180	0.177461000	-2.06	0.177345867	 150.000	 1.395
1656052252.7218549	4.32100	890.965000000	-8.79	880.500676180	0.177430000	-2.06	0.177314887	 150.000	 1.237
1656052254.9209881	4.30400	890.660000000	-8.79	880.199258384	0.177400000	-2.06	0.177285575	 150.000	 -0.745
1656052256.1789911	4.30200	890.660000000	-8.79	880.199258384	0.177400000	-2.06	0.177284907	 150.000	 1.536
1656052257.9193499	4.29000	890.510000000	-8.79	880.051020124	0.177369000	-2.06	0.177254595	 150.000	 -0.717
1656052259.2624040	4.28400	890.510000000	-8.79	880.051020124	0.177369000	-2.06	0.177253927	 150.000	 -0.779
1656052260.9532280	4.27200	890.355000000	-8.79	879.897840589	0.177339000	-2.06	0.177224614	 150.000	 1.447
1656052262.3391960	4.27100	890.355000000	-8.79	879.897840589	0.177339000	-2.06	0.177224614	 150.000	 0.501
1656052263.5270300	4.26700	890.355000000	-8.79	879.897840589	0.177339000	-2.06	0.177223946	 150.000	 0.813
1656052264.7278261	4.25100	890.050000000	-8.78	879.610661064	0.177308000	-2.06	0.177193634	 150.000	 1.224
1656052266.9219689	4.24400	890.050000000	-8.78	879.610661064	0.177278000	-2.06	0.177163653	 150.000	 0.687
1656052268.1925759	4.24100	890.050000000	-8.79	879.596422793	0.177278000	-2.06	0.177163653	 150.000	 -0.863
1656052269.9273109	4.22800	889.745000000	-8.79	879.295004998	0.177247000	-2.06	0.177132673	 150.000	 0.958
1656052271.2683740	4.21900	889.745000000	-8.79	879.295004998	0.177217000	-2.06	0.177102693	 150.000	 0.974
1656052273.0210710	4.21400	889.745000000	-8.79	879.295004998	0.177217000	-2.06	0.177102025	 150.000	 -0.043
1656052274.4269440	4.20900	889.590000000	-8.79	879.141825462	0.177217000	-2.05	0.177103358	 150.000	 -0.632
1656052275.6307299	4.20600	889.590000000	-8.79	879.141825462	0.177186000	-2.06	0.177071713	 150.000	 1.051
1656052276.8219130	4.19100	889.440000000	-8.79	878.993587202	0.177155000	-2.06	0.177040733	 150.000	 1.352
1656052278.5243590	4.17600	889.285000000	-8.79	878.840407666	0.177125000	-2.06	0.177010752	 150.000	 1.689
1656052279.7268040	4.17500	889.285000000	-8.79	878.840407666	0.177125000	-2.06	0.177010752	 150.000	 0.879
1656052281.9252961	4.17100	889.285000000	-8.79	878.840407666	0.177125000	-2.05	0.177011417	 150.000	 -0.536
1656052283.3381679	4.15800	889.135000000	-8.79	878.692169406	0.177094000	-2.06	0.176979772	 150.000	 0.061
1656052284.5309870	4.15500	888.980000000	-8.79	878.538989871	0.177064000	-2.05	0.176950456	 150.000	 1.716
1656052285.7271490	4.14700	888.980000000	-8.79	878.538989871	0.177064000	-2.06	0.176949791	 150.000	 -0.862
1656052287.9262841	4.14000	888.830000000	-8.79	878.390751611	0.177033000	-2.05	0.176919476	 150.000	 1.055
1656052289.1300769	4.12500	888.675000000	-8.79	878.237572075	0.177003000	-2.05	0.176889495	 150.000	 1.453
1656052290.8295331	4.12100	888.675000000	-8.79	878.237572075	0.177003000	-2.05	0.176889495	 150.000	 -0.699
1656052292.0279830	4.11300	888.525000000	-8.79	878.089333815	0.176972000	-2.06	0.176857184	 150.000	 -0.179
1656052293.7264531	4.11300	888.525000000	-8.79	878.089333815	0.176972000	-2.06	0.176857851	 150.000	 -0.752
1656052294.9332340	4.09900	888.370000000	-8.79	877.936154280	0.176942000	-2.06	0.176827204	 150.000	 -0.070
1656052296.6347840	4.08900	888.370000000	-8.79	877.936154280	0.176942000	-2.06	0.176827870	 150.000	 -0.009
1656052297.8295050	4.09300	888.370000000	-8.79	877.936154280	0.176942000	-2.05	0.176828534	 150.000	 0.981
1656052299.5319660	4.07800	888.220000000	-8.79	877.787916020	0.176881000	-2.05	0.176767574	 150.000	 -0.781
1656052300.7280190	4.07200	888.065000000	-8.79	877.634736484	0.176881000	-2.06	0.176766909	 150.000	 -0.299
1656052302.9318910	4.06600	887.915000000	-8.79	877.486498224	0.176850000	-2.05	0.176736593	 150.000	 0.726
1656052304.3471141	4.05300	887.760000000	-8.79	877.333318689	0.176850000	-2.06	0.176735929	 150.000	 0.252
1656052305.5379400	4.05100	887.760000000	-8.79	877.333318689	0.176820000	-2.05	0.176706613	 150.000	 -0.464
1656052306.7327490	4.03500	887.610000000	-8.79	877.185080428	0.176789000	-2.05	0.176675633	 150.000	 -0.638
1656052308.9298899	4.03500	887.610000000	-8.79	877.185080428	0.176789000	-2.06	0.176674969	 150.000	 1.305
1656052310.3012331	4.02200	887.455000000	-8.78	877.046097651	0.176759000	-2.05	0.176645652	 150.000	 -0.898
1656052311.5352941	4.01800	887.455000000	-8.78	877.046097651	0.176759000	-2.05	0.176645652	 150.000	 1.178
1656052312.7297511	4.00600	887.305000000	-8.79	876.883662633	0.176728000	-2.05	0.176614672	 150.000	 0.769
1656052314.9302530	4.00200	887.150000000	-8.79	876.730483097	0.176698000	-2.05	0.176584691	 150.000	 -0.677
1656052316.3321409	3.99800	887.150000000	-8.78	876.744674977	0.176698000	-2.05	0.176585353	 150.000	 1.624
1656052317.5312970	3.98700	887.000000000	-8.78	876.596434317	0.176667000	-2.05	0.176553711	 150.000	 1.149
1656052318.7347269	3.97600	886.845000000	-8.78	876.443252302	0.176637000	-2.05	0.176524391	 150.000	 -0.353
1656052320.9358571	3.97300	886.695000000	-8.79	876.280827042	0.176637000	-2.05	0.176523730	 150.000	 0.921
1656052322.3829939	3.96600	886.695000000	-8.78	876.295011642	0.176606000	-2.05	0.176493411	 150.000	 -0.680
1656052323.6256790	3.96100	886.540000000	-8.78	876.141829627	0.176606000	-2.05	0.176493411	 150.000	 -0.595
1656052324.8354530	3.95000	886.540000000	-8.78	876.141829627	0.176545000	-2.05	0.176431789	 150.000	 -0.757
1656052326.5349190	3.94700	886.390000000	-8.78	875.993588967	0.176576000	-2.05	0.176462769	 150.000	 -0.101
1656052327.7390611	3.92800	886.085000000	-8.79	875.677991451	0.176515000	-2.05	0.176401808	 150.000	 -0.696
1656052329.9348490	3.92600	886.085000000	-8.79	875.677991451	0.176484000	-2.05	0.176370828	 150.000	 1.199
1656052331.3051929	3.91800	886.085000000	-8.79	875.677991451	0.176484000	-2.05	0.176370828	 150.000	 -0.817
1656052332.5372651	3.90900	885.930000000	-8.78	875.538984278	0.176454000	-2.06	0.176340185	 150.000	 -0.746
1656052333.7377009	3.89900	885.775000000	-8.78	875.385802263	0.176423000	-2.05	0.176310528	 150.000	 0.153
1656052335.9428170	3.89700	885.775000000	-8.78	875.385802263	0.176423000	-2.05	0.176309867	 150.000	 0.064
1656052337.2932110	3.89000	885.625000000	-8.78	875.237561603	0.176393000	-2.05	0.176279887	 150.000	 0.765
1656052339.0435450	3.88100	885.625000000	-8.78	875.237561603	0.176362000	-2.05	0.176248906	 150.000	 -0.339
1656052340.4288490	3.87900	885.470000000	-8.78	875.084379588	0.176362000	-2.05	0.176248906	 150.000	 1.459
1656052341.6396191	3.86000	885.320000000	-8.78	874.950291938	0.176301000	-2.05	0.176188606	 150.000	 0.078
1656052342.8384171	3.86700	885.320000000	-8.78	874.936138928	0.176332000	-2.05	0.176218926	 150.000	 -0.557
1656052344.5452280	3.85100	885.015000000	-8.78	874.634716254	0.176301000	-2.05	0.176188606	 150.000	 1.028
1656052345.7416749	3.84500	885.015000000	-8.78	874.634716254	0.176270000	-2.05	0.176156965	 150.000	 -0.907
1656052347.9447949	3.83800	884.860000000	-8.78	874.481534239	0.176240000	-2.05	0.176127645	 150.000	 1.282
1656052349.3483951	3.83000	884.860000000	-8.78	874.481534239	0.176209000	-2.05	0.176096664	 150.000	 0.114
1656052351.0485160	3.82400	884.710000000	-8.78	874.333293579	0.176209000	-2.05	0.176096005	 150.000	 1.600
1656052352.5106139	3.80100	884.405000000	-8.78	874.031870904	0.176148000	-2.05	0.176035044	 150.000	 0.001
1656052353.7503071	3.80900	884.405000000	-8.78	874.031870904	0.176148000	-2.05	0.176035703	 150.000	 1.472
1656052354.9544561	3.79200	884.250000000	-8.78	873.878688889	0.176118000	-2.05	0.176005063	 150.000	 1.741
1656052356.6465800	3.79100	884.100000000	-8.78	873.744581736	0.176087000	-2.05	0.175974083	 150.000	 -0.074
1656052357.8474269	3.78200	884.100000000	-8.78	873.730448229	0.176087000	-2.05	0.175974083	 150.000	 1.482
1656052359.5498321	3.77700	883.945000000	-8.78	873.577266214	0.176057000	-2.05	0.175944102	 150.000	 1.132
1656052360.7506280	3.76400	883.795000000	-8.78	873.429025555	0.176026000	-2.05	0.175913122	 150.000	 1.136
1656052362.9441390	3.76500	883.795000000	-8.78	873.429025555	0.176026000	-2.06	0.175912461	 150.000	 1.716
1656052364.3929119	3.75200	883.490000000	-8.78	873.127602880	0.175965000	-2.05	0.175852161	 150.000	 1.289
1656052365.6409390	3.74500	883.490000000	-8.78	873.141726635	0.175965000	-2.05	0.175852161	 150.000	 0.724
1656052366.8483610	3.74400	883.335000000	-8.78	872.988542142	0.175965000	-2.05	0.175852161	 150.000	 -0.231
1656052368.5452030	3.72700	883.185000000	-8.78	872.840299084	0.175904000	-2.05	0.175791859	 150.000	 0.586
1656052369.7476270	3.71600	883.030000000	-8.78	872.672998190	0.175874000	-2.05	0.175761878	 150.000	 0.530
1656052371.9481080	3.71700	883.030000000	-8.78	872.672998190	0.175874000	-2.05	0.175761878	 150.000	 0.866
1656052373.3230879	3.70200	882.725000000	-8.78	872.385687041	0.175843000	-2.05	0.175730239	 150.000	 0.682
1656052374.5481679	3.69700	882.575000000	-8.78	872.237443983	0.175813000	-2.05	0.175700258	 150.000	 -0.752
1656052375.7476180	3.69600	882.575000000	-8.78	872.237443983	0.175782000	-2.05	0.175669936	 150.000	 0.963
1656052377.9477470	3.68300	882.420000000	-8.78	872.070152841	0.175752000	-2.05	0.175639298	 150.000	 -0.099
1656052379.2945089	3.67100	882.270000000	-8.78	871.936016432	0.175721000	-2.05	0.175608975	 150.000	 -0.009
1656052381.0444839	3.67100	882.270000000	-8.78	871.936016432	0.175721000	-2.05	0.175608975	 150.000	 -0.898
1656052382.4666879	3.66300	882.115000000	-8.78	871.782831940	0.175691000	-2.05	0.175578994	 150.000	 1.297
1656052383.6538820	3.65400	881.965000000	-8.78	871.634588882	0.175660000	-2.05	0.175548014	 150.000	 -0.015
1656052384.8483350	3.64500	881.810000000	-8.78	871.481404389	0.175630000	-2.05	0.175518033	 150.000	 1.502
1656052386.5481551	3.63700	881.660000000	-8.78	871.333161331	0.175599000	-2.05	0.175487053	 150.000	 0.189
1656052387.7535901	3.63100	881.505000000	-8.78	871.179976839	0.175569000	-2.05	0.175457072	 150.000	 -0.501
1656052389.9530690	3.62500	881.350000000	-8.78	871.026792346	0.175569000	-2.05	0.175457072	 150.000	 1.325
1656052391.3509891	3.61800	881.200000000	-8.78	870.864462142	0.175508000	-2.05	0.175396111	 150.000	 1.632
1656052392.5587640	3.61300	881.200000000	-8.78	870.878549288	0.175508000	-2.05	0.175396111	 150.000	 -0.781
1656052393.7565689	3.59700	881.045000000	-8.78	870.725364795	0.175477000	-2.05	0.175365131	 150.000	 -0.004
1656052395.9620390	3.58100	880.590000000	-8.78	870.275694187	0.175385000	-2.05	0.175273190	 150.000	 -0.765
1656052397.2283051	3.58900	880.740000000	-8.78	870.409857452	0.175416000	-2.05	0.175304170	 150.000	 -0.150
1656052398.9616771	3.57800	880.590000000	-8.78	870.275694187	0.175385000	-2.04	0.175273844	 150.000	 0.633
1656052400.3150680	3.56800	880.435000000	-8.78	870.122509694	0.175355000	-2.05	0.175243209	 150.000	 1.035
1656052402.0653999	3.56500	880.285000000	-8.78	869.974266636	0.175324000	-2.05	0.175212228	 150.000	 0.495
1656052403.4470699	3.54700	880.130000000	-8.78	869.821082143	0.175294000	-2.04	0.175182902	 150.000	 -0.294
1656052404.6604750	3.54400	879.980000000	-8.78	869.672839086	0.175263000	-2.04	0.175151922	 150.000	 -0.700
1656052405.8662579	3.54000	879.825000000	-8.78	869.519654593	0.175233000	-2.05	0.175121286	 150.000	 1.289
1656052407.5627289	3.53800	879.825000000	-8.78	869.519654593	0.175233000	-2.05	0.175121286	 150.000	 -0.607
1656052408.7578940	3.52900	879.520000000	-8.78	869.218227042	0.175202000	-2.05	0.175090306	 150.000	 -0.738
1656052410.9626620	3.51300	879.370000000	-8.78	869.069983985	0.175141000	-2.05	0.175029345	 150.000	 0.861
1656052412.3589330	3.50800	879.215000000	-8.78	868.916799492	0.175111000	-2.05	0.174999364	 150.000	 1.650
1656052413.5597329	3.51000	879.215000000	-8.78	868.916799492	0.175111000	-2.05	0.174999364	 150.000	 0.414
1656052414.7608831	3.48900	878.910000000	-8.78	868.615371941	0.175050000	-2.04	0.174939057	 150.000	 0.699
1656052416.9606590	3.48800	878.760000000	-8.78	868.467128884	0.175019000	-2.04	0.174908076	 150.000	 -0.614
1656052418.3110559	3.47500	878.455000000	-8.77	868.179735076	0.174989000	-2.04	0.174878095	 150.000	 -0.720
1656052420.0583911	3.47100	878.455000000	-8.77	868.179735076	0.174958000	-2.05	0.174846462	 150.000	 -0.696
1656052421.4985509	3.46600	878.300000000	-8.77	868.026548107	0.174958000	-2.04	0.174847115	 150.000	 0.225
1656052422.6913669	3.45800	878.150000000	-8.78	867.864273783	0.174928000	-2.04	0.174817134	 150.000	 0.977
1656052423.8825481	3.45800	877.995000000	-8.78	867.711089290	0.174897000	-2.04	0.174786154	 150.000	 0.217
1656052425.5720410	3.43700	877.690000000	-8.77	867.423683261	0.174836000	-2.04	0.174725192	 150.000	 1.243
1656052426.7635009	3.43100	877.540000000	-8.78	867.261418682	0.174806000	-2.04	0.174695211	 150.000	 -0.846
1656052428.9620011	3.42000	877.385000000	-8.77	867.122250838	0.174775000	-2.05	0.174663578	 150.000	 0.666
1656052430.3898280	3.42100	877.385000000	-8.77	867.122250838	0.174775000	-2.05	0.174663578	 150.000	 -0.616
1656052431.5800121	3.41200	877.080000000	-8.77	866.820818415	0.174714000	-2.05	0.174602617	 150.000	 -0.085
1656052432.7718260	3.40600	877.080000000	-8.77	866.820818415	0.174684000	-2.04	0.174573289	 150.000	 -0.665
1656052434.9649839	3.38800	876.775000000	-8.77	866.519385992	0.174623000	-2.04	0.174512327	 150.000	 -0.276
1656052436.1657741	3.39300	876.775000000	-8.77	866.519385992	0.174623000	-2.05	0.174511675	 150.000	 0.838
1656052437.8642490	3.38000	876.470000000	-8.77	866.217953569	0.174562000	-2.04	0.174451366	 150.000	 -0.643
1656052439.0610509	3.37300	876.470000000	-8.77	866.217953569	0.174531000	-2.03	0.174421035	 150.000	 -0.053
1656052440.7702770	3.36600	876.165000000	-8.77	865.916521146	0.174531000	-2.04	0.174420386	 150.000	 -0.114
1656052441.9629500	3.36000	876.010000000	-8.77	865.763334177	0.174470000	-2.04	0.174359424	 150.000	 1.578
1656052443.6647601	3.34900	875.860000000	-8.77	865.615088723	0.174439000	-2.03	0.174329093	 150.000	 -0.486
1656052444.8655620	3.33200	875.400000000	-8.77	865.160469330	0.174348000	-2.04	0.174237502	 150.000	 1.247
1656052446.5666709	3.34100	875.400000000	-8.78	865.146484393	0.174378000	-2.03	0.174268132	 150.000	 1.245
1656052447.7674630	3.32800	875.250000000	-8.77	865.012223876	0.174317000	-2.04	0.174206521	 150.000	 1.670
1656052449.9636071	3.32100	875.095000000	-8.77	864.859036907	0.174287000	-2.04	0.174176540	 150.000	 -0.191
1656052451.1683910	3.31000	874.790000000	-8.78	864.543629291	0.174256000	-2.04	0.174145560	 150.000	 1.280
1656052452.8652191	3.31100	874.790000000	-8.77	864.557604484	0.174226000	-2.04	0.174115579	 150.000	 1.107
1656052454.0650251	3.29200	874.335000000	-8.77	864.107926607	0.174165000	-2.03	0.174055266	 150.000	 0.220
1656052455.7691150	3.29200	874.335000000	-8.77	864.107926607	0.174134000	-2.03	0.174024285	 150.000	 -0.718
1656052456.9639289	3.28100	874.180000000	-8.77	863.968695612	0.174104000	-2.04	0.173993656	 150.000	 1.851
1656052458.6733689	3.27200	873.875000000	-8.77	863.653307215	0.174073000	-2.04	0.173962676	 150.000	 0.537
1656052459.8701720	3.26600	873.570000000	-8.77	863.365821027	0.174043000	-2.03	0.173933343	 150.000	 -0.646
1656052461.5650179	3.26600	873.570000000	-8.77	863.365821027	0.174012000	-2.03	0.173903008	 150.000	 -0.726
1656052462.7674420	3.24700	873.265000000	-8.77	863.050442369	0.173921000	-2.03	0.173811420	 150.000	 0.719
1656052464.9699230	3.24600	873.265000000	-8.77	863.050442369	0.173921000	-2.03	0.173811420	 150.000	 1.291
1656052466.1697249	3.23800	872.960000000	-8.77	862.762946443	0.173890000	-2.03	0.173780439	 150.000	 0.486
1656052467.8678360	3.22800	872.655000000	-8.77	862.447577523	0.173829000	-2.04	0.173718830	 150.000	 0.559
1656052469.0689781	3.22300	872.500000000	-8.77	862.308319707	0.173799000	-2.03	0.173689496	 150.000	 -0.422
1656052470.7694559	3.21000	872.195000000	-8.77	861.992958131	0.173738000	-2.04	0.173627888	 150.000	 -0.703
1656052471.9712491	3.21000	872.195000000	-8.77	861.992958131	0.173738000	-2.03	0.173628535	 150.000	 0.218
1656052473.6733479	3.19900	871.890000000	-8.77	861.705445122	0.173676000	-2.03	0.173567218	 150.000	 0.332
1656052474.8721459	3.19900	871.740000000	-8.77	861.543280254	0.173646000	-2.03	0.173536593	 150.000	 -0.213
1656052476.5795929	3.18700	871.585000000	-8.77	861.390093285	0.173615000	-2.04	0.173504966	 150.000	 1.769
1656052477.7707570	3.18000	871.435000000	-8.77	861.255759981	0.173554000	-2.03	0.173445295	 150.000	 0.196
1656052479.9699070	3.17100	870.975000000	-8.77	860.801133245	0.173493000	-2.03	0.173383689	 150.000	 -0.404
1656052481.2531230	3.15700	870.825000000	-8.76	860.666778371	0.173432000	-2.03	0.173322728	 150.000	 0.228
1656052482.9728889	3.15400	870.520000000	-8.77	860.351448104	0.173402000	-2.04	0.173292101	 150.000	 0.679
1656052484.3269241	3.14700	870.365000000	-8.77	860.198258661	0.173371000	-2.03	0.173261766	 150.000	 -0.403
1656052485.5769341	3.14100	870.215000000	-8.77	860.050010812	0.173310000	-2.03	0.173200805	 150.000	 1.504
1656052486.7753870	3.13100	869.910000000	-8.77	859.748573520	0.173249000	-2.03	0.173140486	 150.000	 0.890
1656052488.9735250	3.12500	869.755000000	-8.77	859.595384076	0.173219000	-2.03	0.173109862	 150.000	 -0.290
1656052490.4356239	3.11300	869.450000000	-8.77	859.293946784	0.173158000	-2.03	0.173048900	 150.000	 -0.496
1656052491.6852901	3.11300	869.300000000	-8.77	859.145698935	0.173158000	-2.03	0.173049543	 150.000	 1.394
1656052492.8754759	3.09900	868.995000000	-8.77	858.844261643	0.173066000	-2.03	0.172957601	 150.000	 0.949
1656052494.5735841	3.09400	868.840000000	-8.76	858.704933505	0.173066000	-2.03	0.172956958	 150.000	 -0.809
1656052495.7707560	3.08100	868.380000000	-8.77	858.236445463	0.172944000	-2.03	0.172835035	 150.000	 -0.093
1656052497.9738691	3.08200	868.380000000	-8.77	858.236445463	0.172975000	-2.03	0.172866016	 150.000	 0.097
1656052499.1782990	3.06600	867.925000000	-8.77	857.786760322	0.172853000	-2.03	0.172744734	 150.000	 -0.279
1656052500.8741131	3.06700	867.770000000	-8.76	857.647415114	0.172822000	-2.03	0.172713753	 150.000	 1.271
1656052502.0735731	3.05800	867.620000000	-8.76	857.499164872	0.172791000	-2.03	0.172682773	 150.000	 -0.182
1656052503.7720420	3.05100	867.465000000	-8.77	857.332133587	0.172730000	-2.03	0.172621811	 150.000	 1.598
1656052504.9708419	3.04400	867.010000000	-8.76	856.896280556	0.172700000	-2.03	0.172591830	 150.000	 1.173
1656052506.6762941	3.03000	866.705000000	-8.77	856.581011153	0.172608000	-2.02	0.172500526	 150.000	 0.183
1656052507.8770890	3.02200	866.550000000	-8.76	856.441646481	0.172578000	-2.03	0.172469906	 150.000	 1.602
1656052509.5759139	3.02400	866.400000000	-8.76	856.293396239	0.172547000	-2.03	0.172438926	 150.000	 0.705
1656052510.7766941	3.01500	866.095000000	-8.76	855.991954081	0.172486000	-2.03	0.172377964	 150.000	 -0.717
1656052512.9768450	3.00700	865.790000000	-8.76	855.690511923	0.172425000	-2.03	0.172317002	 150.000	 -0.806
1656052514.1782789	2.99300	865.330000000	-8.76	855.235877848	0.172334000	-2.03	0.172226059	 150.000	 1.365
1656052515.8767490	2.99200	865.330000000	-8.76	855.235877848	0.172334000	-2.03	0.172226059	 150.000	 1.570
1656052517.0775421	2.98100	864.875000000	-8.76	854.786185449	0.172242000	-2.03	0.172134117	 150.000	 1.667
1656052518.7773621	2.98200	864.875000000	-8.75	854.799974124	0.172242000	-2.02	0.172134754	 150.000	 -0.063
1656052519.9857819	2.96700	864.265000000	-8.76	854.183301132	0.172120000	-2.03	0.172012193	 150.000	 0.204
1656052521.6762700	2.95600	863.955000000	-8.75	853.890691307	0.172059000	-2.02	0.171951868	 150.000	 -0.653
1656052522.8750751	2.95200	863.805000000	-8.75	853.742438674	0.172029000	-2.02	0.171921887	 150.000	 -0.315
1656052524.5749021	2.94700	863.500000000	-8.76	853.427224899	0.171968000	-2.03	0.171860288	 150.000	 0.350
1656052525.7773290	2.93300	863.195000000	-8.76	853.125782741	0.171906000	-2.02	0.171798963	 150.000	 1.239
1656052527.9758241	2.93300	862.890000000	-8.76	852.824340583	0.171845000	-2.02	0.171738001	 150.000	 1.519
1656052529.1802490	2.91400	862.280000000	-8.75	852.235203570	0.171723000	-2.02	0.171616711	 150.000	 -0.543
1656052530.8777201	2.91500	862.280000000	-8.75	852.235203570	0.171723000	-2.02	0.171616077	 150.000	 -0.407
1656052532.0766380	2.90700	861.820000000	-8.75	851.780562161	0.171662000	-2.02	0.171555115	 150.000	 0.423
1656052533.7813351	2.90400	861.670000000	-8.75	851.632309528	0.171632000	-2.02	0.171525134	 150.000	 0.956
1656052534.9791560	2.88800	861.210000000	-8.75	851.177668120	0.171540000	-2.02	0.171433824	 150.000	 -0.696
1656052536.6825969	2.88100	860.905000000	-8.76	850.862495717	0.171449000	-2.02	0.171342880	 150.000	 -0.502
1656052537.8784080	2.87100	860.450000000	-8.75	850.440230246	0.171388000	-2.02	0.171281918	 150.000	 1.670
1656052539.5824990	2.86700	860.450000000	-8.75	850.426521445	0.171388000	-2.02	0.171281286	 150.000	 0.305
1656052540.7822969	2.86300	859.990000000	-8.75	849.971880036	0.171296000	-2.02	0.171189975	 150.000	 1.121
1656052542.9884100	2.84800	859.530000000	-8.75	849.530932772	0.171174000	-2.02	0.171067419	 150.000	 -0.736
1656052544.2400689	2.84700	859.380000000	-8.75	849.368985995	0.171144000	-2.02	0.171037438	 150.000	 -0.630
1656052545.9934421	2.83400	858.920000000	-8.75	848.928029012	0.171052000	-2.02	0.170945495	 150.000	 -0.603
1656052547.2713499	2.82700	858.615000000	-8.75	848.612897566	0.170991000	-2.02	0.170885164	 150.000	 -0.755
1656052548.9927471	2.82200	858.465000000	-8.75	848.464644932	0.170991000	-2.02	0.170884533	 150.000	 0.874
1656052550.2533920	2.80000	857.550000000	-8.75	847.573966468	0.170808000	-2.02	0.170701647	 150.000	 -0.747
1656052551.9893961	2.80000	857.395000000	-8.75	847.420769611	0.170777000	-2.02	0.170671296	 150.000	 1.505
1656052553.1895559	2.79800	857.245000000	-8.74	847.286163036	0.170747000	-2.01	0.170641943	 150.000	 -0.377
1656052554.8836830	2.78900	856.785000000	-8.75	846.817865851	0.170655000	-2.02	0.170549372	 150.000	 0.915
1656052556.0834689	2.78100	856.480000000	-8.75	846.516413971	0.170594000	-2.02	0.170488410	 150.000	 -0.282
1656052557.7859299	2.78000	856.330000000	-8.75	846.368158948	0.170533000	-2.01	0.170428075	 150.000	 0.460
1656052558.9877250	2.76200	855.565000000	-8.74	845.625680030	0.170381000	-2.01	0.170276168	 150.000	 1.555
1656052560.6865470	2.76100	855.410000000	-8.75	845.458861474	0.170350000	-2.01	0.170245187	 150.000	 0.139
1656052561.8849909	2.75300	854.955000000	-8.75	845.009154570	0.170259000	-2.01	0.170154243	 150.000	 -0.205
1656052563.5854559	2.74900	854.800000000	-8.75	844.855957713	0.170228000	-2.02	0.170122636	 150.000	 0.220
1656052564.7842579	2.73400	853.735000000	-8.75	843.803347050	0.170045000	-2.00	0.169940998	 150.000	 1.643
1656052566.9823959	2.73000	853.735000000	-8.75	843.803347050	0.170014000	-2.02	0.169908769	 150.000	 -0.103
1656052568.1885200	2.72800	853.430000000	-8.74	843.515482878	0.169984000	-2.02	0.169878787	 150.000	 1.201
1656052569.8800230	2.71300	852.665000000	-8.74	842.759370081	0.169831000	-2.01	0.169726506	 150.000	 0.737
1656052571.0864451	2.71700	852.820000000	-8.74	842.912569406	0.169831000	-2.01	0.169726506	 150.000	 1.148
1656052572.7839150	2.70000	851.905000000	-8.74	842.008199197	0.169679000	-2.01	0.169574600	 150.000	 1.586
1656052573.9870601	2.68600	851.445000000	-8.74	841.553543136	0.169557000	-2.00	0.169453297	 150.000	 1.611
1656052575.6994910	2.68900	851.295000000	-8.74	841.418830214	0.169557000	-2.00	0.169453297	 150.000	 -0.855
1656052576.8889620	2.67200	850.530000000	-8.74	840.649172928	0.169374000	-2.01	0.169269788	 150.000	 -0.266
1656052578.5887821	2.67400	850.530000000	-8.74	840.649172928	0.169404000	-2.00	0.169300391	 150.000	 1.241
1656052579.7852321	2.66200	849.765000000	-8.74	839.906580277	0.169251000	-2.01	0.169146863	 150.000	 0.802
1656052581.9897070	2.65900	849.460000000	-8.74	839.591603395	0.169190000	-2.01	0.169085901	 150.000	 0.034
1656052583.1911480	2.64900	848.850000000	-8.74	839.002195511	0.169068000	-2.00	0.168964596	 150.000	 0.510
1656052584.8936059	2.63800	848.395000000	-8.74	838.538975776	0.168977000	-2.00	0.168873652	 150.000	 -0.821
1656052586.0904109	2.63500	847.935000000	-8.74	838.097810744	0.168885000	-2.00	0.168781708	 150.000	 0.161
1656052587.7948649	2.62300	847.630000000	-8.74	837.796349156	0.168824000	-2.00	0.168721363	 150.000	 -0.143
1656052588.9970131	2.61300	846.870000000	-8.74	837.045166180	0.168672000	-2.00	0.168568838	 150.000	 1.197
1656052590.6944871	2.61100	846.870000000	-8.74	837.045166180	0.168641000	-2.00	0.168538474	 150.000	 1.307
1656052591.8962770	2.59500	845.950000000	-8.73	836.149289699	0.168458000	-2.00	0.168355585	 150.000	 0.274
1656052594.1040320	2.59600	845.800000000	-8.74	835.987579623	0.168427000	-2.00	0.168324604	 150.000	 -0.283
1656052595.5245900	2.58200	844.730000000	-8.73	834.943423946	0.168244000	-2.00	0.168141715	 150.000	 -0.581
1656052596.7130711	2.57200	844.120000000	-8.72	834.353903102	0.168153000	-2.00	0.168050770	 150.000	 1.588
1656052597.9048920	2.56900	843.970000000	-8.73	834.192228887	0.168092000	-2.00	0.167989808	 150.000	 0.559
1656052599.5937450	2.57000	843.510000000	-8.73	833.737558194	0.168031000	-2.00	0.167928845	 150.000	 0.446
1656052600.7941830	2.55400	842.595000000	-8.72	832.846546681	0.167817000	-2.00	0.167714975	 150.000	 0.534
1656052602.9953101	2.55100	842.445000000	-8.72	832.698282115	0.167787000	-2.00	0.167684993	 150.000	 -0.843
1656052604.1974590	2.54300	841.680000000	-8.73	831.928759565	0.167634000	-1.99	0.167533306	 150.000	 -0.652
1656052605.8959310	2.53700	841.375000000	-8.73	831.627293126	0.167542000	-1.99	0.167440753	 150.000	 0.227
1656052607.0957251	2.52900	840.610000000	-8.72	830.884512257	0.167420000	-1.99	0.167318826	 150.000	 0.488
1656052608.8048100	2.51600	839.850000000	-8.72	830.133305123	0.167268000	-1.99	0.167166918	 150.000	 -0.856
1656052609.9956329	2.50900	839.390000000	-8.72	829.678627121	0.167146000	-1.99	0.167045600	 150.000	 0.553
1656052611.7004371	2.50100	838.630000000	-8.72	828.940735699	0.167024000	-1.99	0.166923066	 150.000	 0.004
1656052612.8929031	2.49700	838.170000000	-8.72	828.472741984	0.166932000	-1.99	0.166831728	 150.000	 0.028
1656052614.5997090	2.49200	837.405000000	-8.72	827.716592697	0.166810000	-1.99	0.166709195	 150.000	 -0.800
1656052615.7971530	2.47900	836.795000000	-8.72	827.126936705	0.166657000	-1.98	0.166557497	 150.000	 1.676
1656052617.9966421	2.47500	836.340000000	-8.72	826.663914278	0.166566000	-1.99	0.166465948	 150.000	 -0.216
1656052619.2050619	2.46300	835.270000000	-8.72	825.606293707	0.166352000	-1.99	0.166252076	 150.000	 0.415
1656052620.9055259	2.45800	835.270000000	-8.72	825.619556070	0.166352000	-1.99	0.166252076	 150.000	 1.584
1656052622.1003361	2.45600	834.510000000	-8.72	824.868336868	0.166169000	-1.99	0.166069186	 150.000	 0.601
1656052623.8037920	2.44300	833.745000000	-8.72	824.112175435	0.166017000	-1.99	0.165916674	 150.000	 1.064
1656052625.0009041	2.43300	832.830000000	-8.71	823.220961647	0.165864000	-1.99	0.165764370	 150.000	 1.194
1656052626.7020590	2.43200	832.675000000	-8.71	823.067750009	0.165833000	-1.98	0.165733989	 150.000	 -0.426
1656052627.8982229	2.43000	831.760000000	-8.72	822.150109494	0.165681000	-1.98	0.165582080	 150.000	 -0.121
1656052629.5963371	2.42100	831.305000000	-8.72	821.700366419	0.165589000	-1.98	0.165490135	 150.000	 1.577
1656052630.7994800	2.40600	830.085000000	-8.71	820.507632949	0.165315000	-1.98	0.165216298	 150.000	 0.641
1656052633.0006161	2.39400	829.320000000	-8.71	819.751459378	0.165132000	-1.99	0.165032809	 150.000	 1.122
1656052634.2033989	2.39100	828.555000000	-8.71	818.995285806	0.165009000	-1.98	0.164910481	 150.000	 1.325
1656052635.9038789	2.38200	827.795000000	-8.71	818.257180275	0.164887000	-1.97	0.164789150	 150.000	 1.742
1656052637.1056530	2.37100	826.880000000	-8.71	817.339611646	0.164674000	-1.98	0.164575681	 150.000	 1.684
1656052638.8041260	2.36700	826.270000000	-8.71	816.749751261	0.164552000	-1.98	0.164453754	 150.000	 0.486
1656052640.0039160	2.36100	825.045000000	-8.70	815.551938842	0.164308000	-1.97	0.164210493	 150.000	 0.413
1656052641.7033839	2.35800	824.740000000	-8.71	815.237379858	0.164277000	-1.97	0.164179512	 150.000	 -1.057
1656052642.9028349	2.35300	823.980000000	-8.70	814.499192853	0.164124000	-1.97	0.164026602	 150.000	 1.476
1656052644.6062880	2.34100	822.760000000	-8.71	813.280193336	0.163850000	-1.97	0.163753355	 150.000	 0.537
1656052645.8054430	2.33000	821.385000000	-8.70	811.934051216	0.163606000	-1.97	0.163509499	 150.000	 -0.567
1656052648.0052240	2.32700	820.930000000	-8.70	811.484286498	0.163484000	-1.97	0.163387571	 150.000	 0.926
1656052649.2093551	2.32300	820.470000000	-8.71	811.016578621	0.163392000	-1.96	0.163296212	 150.000	 0.764
1656052650.9068100	2.30800	818.945000000	-8.69	809.535093779	0.163087000	-1.97	0.162990805	 150.000	 0.945
1656052652.1076479	2.29600	817.420000000	-8.69	808.027616454	0.162812000	-1.96	0.162716552	 150.000	 0.339
1656052653.8071051	2.30000	817.115000000	-8.69	807.726120989	0.162721000	-1.97	0.162625021	 150.000	 -0.357
1656052655.0065441	2.28200	815.740000000	-8.69	806.366920122	0.162477000	-1.96	0.162381748	 150.000	 0.991
1656052656.7099969	2.28500	815.740000000	-8.69	806.366920122	0.162477000	-1.96	0.162382330	 150.000	 -0.416
1656052657.9091499	2.27000	813.910000000	-8.69	804.557947332	0.162110000	-1.96	0.162015544	 150.000	 1.342
1656052659.6132500	2.26100	812.995000000	-8.69	803.666325555	0.161958000	-1.96	0.161863632	 150.000	 0.719
1656052660.8050671	2.26100	811.925000000	-8.69	802.608603222	0.161683000	-1.96	0.161588793	 150.000	 1.285
1656052663.0075390	2.25200	811.010000000	-8.69	801.704102348	0.161500000	-1.96	0.161405899	 150.000	 1.252
1656052664.2119811	2.24100	809.790000000	-8.68	800.510906308	0.161286000	-1.95	0.161192600	 150.000	 0.612
1656052665.9068129	2.23000	807.960000000	-8.68	798.701875622	0.160920000	-1.95	0.160826812	 150.000	 -0.233
1656052667.1072550	2.22500	807.500000000	-8.68	798.247146598	0.160829000	-1.95	0.160735864	 150.000	 0.668
1656052668.8067210	2.21700	805.820000000	-8.68	796.586397116	0.160493000	-1.94	0.160400630	 150.000	 0.025
1656052670.0095110	2.21400	805.210000000	-8.68	795.996110861	0.160371000	-1.94	0.160279269	 150.000	 1.455
1656052671.7119701	2.19900	803.535000000	-8.68	794.340277617	0.160035000	-1.95	0.159942324	 150.000	 0.889
1656052672.9057870	2.19100	801.550000000	-8.68	792.377991655	0.159638000	-1.94	0.159546122	 150.000	 0.414
1656052674.6095951	2.19200	801.245000000	-8.68	792.076481721	0.159577000	-1.94	0.159485157	 150.000	 1.222
1656052675.8110349	2.18500	799.415000000	-8.67	790.280045851	0.159211000	-1.94	0.159119368	 150.000	 1.052
1656052678.0085161	2.17200	797.125000000	-8.67	788.016213793	0.158753000	-1.94	0.158662194	 150.000	 0.702
1656052679.2189400	2.16800	796.210000000	-8.67	787.111669542	0.158570000	-1.94	0.158479299	 150.000	 1.652
1656052680.9134181	2.16400	795.445000000	-8.66	786.367963654	0.158418000	-1.94	0.158327386	 150.000	 -0.066
1656052682.1082311	2.16100	793.920000000	-8.66	784.860365838	0.158113000	-1.93	0.158023677	 150.000	 -0.423
1656052683.8080580	2.14700	791.935000000	-8.66	782.910505650	0.157716000	-1.93	0.157626901	 150.000	 1.458
1656052685.0074990	2.14200	790.255000000	-8.65	781.262103472	0.157380000	-1.93	0.157290536	 150.000	 1.237
1656052686.7172899	2.12800	787.360000000	-8.66	778.387640057	0.156800000	-1.93	0.156711419	 150.000	 0.530
1656052687.9111121	2.12900	787.665000000	-8.65	778.701576999	0.156861000	-1.93	0.156771831	 150.000	 1.004
1656052689.6102190	2.11900	785.830000000	-8.65	776.887458822	0.156495000	-1.92	0.156407141	 150.000	 -0.443
1656052690.8113599	2.11100	783.545000000	-8.65	774.628461528	0.156037000	-1.91	0.155949945	 150.000	 1.438
1656052693.0114999	2.09900	781.715000000	-8.65	772.831596783	0.155641000	-1.92	0.155553620	 150.000	 0.709
1656052694.2129371	2.09200	779.120000000	-8.64	770.278347360	0.155152000	-1.91	0.155065438	 150.000	 0.623
1656052695.9137590	2.08300	776.980000000	-8.64	768.162632626	0.154725000	-1.91	0.154639217	 150.000	 -0.524
1656052697.1141951	2.08000	775.915000000	-8.64	767.109718518	0.154511000	-1.91	0.154425336	 150.000	 1.188
1656052698.8116679	2.07100	774.085000000	-8.63	765.312659215	0.154176000	-1.91	0.154090521	 150.000	 -0.459
1656052700.0184491	2.06700	771.030000000	-8.63	762.304397077	0.153535000	-1.90	0.153450411	 150.000	 0.809
1656052701.7162781	2.05600	769.660000000	-8.63	760.949901112	0.153291000	-1.90	0.153206546	 150.000	 1.134
1656052702.9120841	2.05000	768.285000000	-8.63	759.590461731	0.152986000	-1.90	0.152901714	 150.000	 0.629
1656052704.6215210	2.04400	765.080000000	-8.63	756.421732119	0.152406000	-1.89	0.152323089	 150.000	 -0.904
1656052705.8129849	2.03200	761.265000000	-8.62	752.673808055	0.151643000	-1.90	0.151559980	 150.000	 -0.111
1656052708.0182159	2.02900	760.045000000	-8.62	751.467576262	0.151368000	-1.89	0.151285654	 150.000	 -0.442
1656052709.2182269	2.01700	756.840000000	-8.61	748.310615387	0.150758000	-1.88	0.150676506	 150.000	 -0.691
1656052710.9247110	1.99900	752.720000000	-8.61	744.237046687	0.149873000	-1.88	0.149792499	 150.000	 0.840
1656052712.1145289	2.00400	750.890000000	-8.60	742.439438212	0.149568000	-1.87	0.149488175	 150.000	 0.231
1656052713.8176329	1.99500	748.600000000	-8.60	740.175210011	0.149110000	-1.87	0.149030420	 150.000	 -0.422
1656052715.0204239	1.98300	745.090000000	-8.59	736.728041561	0.148377000	-1.87	0.148298318	 150.000	 1.713
1656052716.7218821	1.97600	740.515000000	-8.59	732.215966870	0.147523000	-1.86	0.147445273	 150.000	 1.763
1656052717.9156971	1.97200	738.685000000	-8.59	730.406475881	0.147157000	-1.85	0.147079965	 150.000	 -0.656
1656052719.6201489	1.96600	735.175000000	-8.58	726.947302580	0.146394000	-1.85	0.146317860	 150.000	 -0.600
1656052720.8222871	1.96000	731.665000000	-8.57	723.488011633	0.145722000	-1.85	0.145646209	 150.000	 1.129
1656052723.0200779	1.94700	726.325000000	-8.56	718.230354226	0.144593000	-1.84	0.144518284	 150.000	 0.220
1656052724.2272120	1.94300	724.340000000	-8.56	716.267476378	0.144258000	-1.83	0.144184425	 150.000	 0.195
1656052725.9223349	1.93400	720.525000000	-8.56	712.494993259	0.143495000	-1.83	0.143421814	 150.000	 1.460
1656052727.1231329	1.92800	713.200000000	-8.55	705.273850905	0.141999000	-1.82	0.141927051	 150.000	 0.057
1656052728.8239379	1.92400	712.130000000	-8.54	704.226825599	0.141755000	-1.81	0.141684117	 150.000	 1.709
1656052730.0223949	1.91600	705.875000000	-8.53	698.063192033	0.140565000	-1.81	0.140494712	 150.000	 1.563
1656052731.7281990	1.90900	702.520000000	-8.53	694.756232119	0.139832000	-1.80	0.139763001	 150.000	 -0.015
1656052732.9250031	1.90000	696.415000000	-8.52	688.729508838	0.138734000	-1.79	0.138665999	 150.000	 -0.735
1656052734.6264701	1.88900	690.620000000	-8.51	683.019875821	0.137544000	-1.78	0.137477481	 150.000	 -0.666
1656052735.8279080	1.88100	683.750000000	-8.50	676.236068339	0.136170000	-1.78	0.136104145	 150.000	 0.196
1656052738.0264020	1.87800	679.630000000	-8.49	672.182373808	0.135316000	-1.76	0.135251874	 150.000	 -0.651
1656052739.2318239	1.86600	668.795000000	-8.47	661.507409133	0.133149000	-1.74	0.133087606	 150.000	 1.310
1656052740.9292941	1.86400	666.660000000	-8.47	659.395673372	0.132722000	-1.74	0.132660803	 150.000	 -0.745
1656052742.1280940	1.85500	659.030000000	-8.45	651.869120792	0.131257000	-1.72	0.131197724	 150.000	 1.432
1656052743.8279171	1.85000	652.625000000	-8.44	645.553796854	0.129945000	-1.72	0.129886316	 150.000	 -0.266
1656052745.0327079	1.84100	642.860000000	-8.43	635.914353143	0.128022000	-1.71	0.127964988	 150.000	 0.469
1656052746.7358050	1.83300	633.700000000	-8.41	626.892179759	0.126100000	-1.68	0.126045797	 150.000	 -0.756
1656052747.9389541	1.82400	627.445000000	-8.40	620.713978956	0.124909000	-1.68	0.124855308	 150.000	 0.250
1656052749.6324310	1.82000	622.715000000	-8.39	616.044243600	0.123902000	-1.67	0.123849121	 150.000	 0.179
1656052750.8392160	1.80500	601.350000000	-8.36	594.963152824	0.119782000	-1.63	0.119733412	 150.000	 1.174
1656052753.0429749	1.79700	591.585000000	-8.33	585.337834096	0.117707000	-1.62	0.117659953	 150.000	 -0.538
1656052754.2431440	1.79300	587.465000000	-8.33	581.270255105	0.117035000	-1.61	0.116988912	 150.000	 -0.808
1656052755.9352570	1.78700	572.510000000	-8.30	566.516294022	0.114045000	-1.59	0.114001090	 150.000	 -0.312
1656052757.1360540	1.78100	559.845000000	-8.27	554.017681977	0.111420000	-1.56	0.111378704	 150.000	 -0.754
1656052758.8345261	1.77300	545.810000000	-8.25	540.161623440	0.108613000	-1.54	0.108573973	 150.000	 0.159
1656052760.0373149	1.76500	527.805000000	-8.22	522.382533958	0.105042000	-1.51	0.105005427	 150.000	 1.203
1656052761.7387750	1.75600	512.850000000	-8.20	507.604186391	0.102021000	-1.49	0.101986597	 150.000	 1.140
1656052762.9419179	1.75200	499.727500000	-8.18	494.645732834	0.099487800	-1.47	0.099455058	 150.000	 -0.686
1656052764.6430261	1.74500	487.673500000	-8.16	482.736080605	0.097137900	-1.45	0.097106967	 150.000	 1.314
1656052765.8418250	1.73400	461.123000000	-8.11	456.509061234	0.091766800	-1.42	0.091738777	 150.000	 1.428
1656052768.0419581	1.73000	451.967500000	-8.11	447.451846221	0.089966300	-1.40	0.089939290	 150.000	 0.501
1656052769.2427540	1.72100	418.551000000	-8.06	414.418511083	0.083252400	-1.36	0.083228879	 150.000	 0.365
1656052770.9412210	1.71500	406.649000000	-8.05	402.645953050	0.080750000	-1.35	0.080727586	 150.000	 -0.870
1656052772.1450081	1.70800	387.118000000	-8.02	383.335534155	0.076965800	-1.31	0.076945561	 150.000	 0.939
1656052773.8428490	1.70300	366.976500000	-8.00	363.406892500	0.073090100	-1.28	0.073071919	 150.000	 0.003
1656052775.0426350	1.69200	334.933000000	-7.96	331.704297472	0.066376200	-1.27	0.066359997	 150.000	 -0.738
1656052776.7467370	1.68700	313.875500000	-7.93	310.872510354	0.062286600	-1.24	0.062271967	 150.000	 0.881
1656052777.9455340	1.68000	287.934500000	-7.90	285.200465440	0.057190200	-1.22	0.057177278	 150.000	 0.577
1656052779.6463590	1.67300	271.455000000	-7.88	268.889154779	0.053955300	-1.22	0.053942989	 150.000	 0.865
1656052780.8489490	1.66200	231.935000000	-7.86	229.756011552	0.046020700	-1.20	0.046010607	 150.000	 0.701
1656052787.1114321	1.63500	130.577500000	-7.76	129.382331845	0.025840900	-1.12	0.025835945	 150.000	 1.021
1656052788.8517909	1.62700	108.605000000	-7.74	107.615545266	0.021583700	-1.08	0.021579866	 150.000	 1.366
1656052790.0542290	1.61700	76.714000000	-7.69	76.023719607	0.015236000	-1.08	0.015233293	 150.000	 -0.785
1656052795.8132150	1.58900	31.662150000	-7.65	31.380348866	0.006275210	-1.13	0.006273994	 150.000	 0.875
1656052802.1160460	1.56500	10.986400000	-7.63	10.889229930	0.002180110	-1.01	0.002179773	 150.000	 0.550
1656052807.9245501	1.54100	3.786105000	-7.53	3.753455077	0.000763897	-0.85	0.000763813	 150.000	 0.637
1656052813.7320540	1.51400	1.394760000	-8.03	1.381070859	0.000297548	-1.41	0.000297458	 150.000	 0.375
1656052820.0312490	1.49700	0.822550000	-7.97	0.814596864	0.000177861	-0.64	0.000177850	 150.000	 0.417
1656052825.8267851	1.48600	0.602605000	-8.11	0.596584311	0.000141383	-0.84	0.000141368	 150.000	 1.684
1656052832.1313260	1.48200	0.527505000	-8.06	0.522296773	0.000117004	0.47	0.000117000	 150.000	 1.058
1656052833.8766589	1.48100	0.514985000	-10.04	0.507101799	0.000126661	-1.09	0.000126638	 150.000	 0.110
1656052835.0824449	1.48000	0.490846500	-6.67	0.487528235	0.000121534	-0.82	0.000121522	 150.000	 0.118
1656052838.8085051	1.47700	0.441971000	-5.74	0.439753409	0.000105024	-3.20	0.000104860	 150.000	 -0.805
1656052840.0029621	1.47600	0.449123500	-7.07	0.445710528	0.000106156	0.81	0.000106145	 150.000	 -0.819
1656052841.1981330	1.47400	0.433030000	-7.24	0.429581244	0.000102282	-2.69	0.000102169	 150.000	 -0.783
1656052842.8886180	1.47300	0.413807500	-7.15	0.410587810	0.000098348	-8.89	0.000097168	 150.000	 1.099
1656052846.1106660	1.47100	0.357481000	-6.44	0.355226643	0.000100852	-1.11	0.000100833	 150.000	 0.625
1656052847.6066749	1.47000	0.362100500	-5.71	0.360306351	0.000095904	-0.91	0.000095892	 150.000	 -0.826
1656052848.7965000	1.46900	0.361057500	-4.88	0.359746540	0.000094653	-3.85	0.000094439	 150.000	 1.457
1656052849.9886751	1.46700	0.340941000	-4.42	0.339928845	0.000076801	-1.33	0.000076780	 150.000	 0.185
1656052851.6918390	1.46600	0.315758000	-10.96	0.309996527	0.000086755	-5.96	0.000086285	 150.000	 1.039
1656052852.8909409	1.46400	0.306668000	-6.92	0.304431449	0.000083536	-0.35	0.000083535	 150.000	 -0.340
1656052855.0867159	1.46400	0.285507500	-7.85	0.282833379	0.000077338	7.96	0.000076592	 150.000	 1.537
1656052856.4959581	1.46200	0.272096500	-6.49	0.270354943	0.000079483	-5.97	0.000079052	 150.000	 -0.984
1656052857.7027359	1.46200	0.276119500	-6.06	0.274576513	0.000079036	-4.88	0.000078749	 150.000	 1.489
1656052858.8965540	1.46000	0.268371000	-7.48	0.266089699	0.000075996	-4.15	0.000075797	 150.000	 1.590
1656052861.0906961	1.45900	0.258089500	-6.34	0.256513041	0.000070066	0.85	0.000070058	 150.000	 -0.571
1656052862.4470799	1.45800	0.255854000	-6.79	0.254061592	0.000065864	-2.06	0.000065821	 150.000	 -0.368
1656052863.6907611	1.45800	0.246168500	-5.86	0.244881229	0.000069082	0.03	0.000069082	 150.000	 1.344
1656052866.9201441	1.45600	0.244231000	-5.12	0.243257273	0.000070036	-5.54	0.000069708	 150.000	 -0.679
1656052868.1123281	1.45500	0.216776000	-8.44	0.214427228	0.000060499	0.13	0.000060499	 150.000	 1.107
