----------------------------------------------------------------------------------------------------------------------
time (s)	T (K)	B (T)	R1 (Ohm)	Theta1 (deg.)	 X1 (Ohm)	 R2 (Ohm)	 Theta2 (deg.)	 X2 (Ohm)
----------------------------------------------------------------------------------------------------------------------

1656770866.3078520	1.76300	0.000000	90.456500000	-7.81	89.618295963	10.921440000	172.29	-10.822707994	0.892460600
1656770871.5661781	1.76600	0.000000	101.633500000	-7.81	100.691725667	21.842800000	172.26	-21.643799384	0.942477700
1656770874.8161600	1.76600	0.000000	94.977000000	-7.76	94.106338006	26.953400000	172.37	-26.715008555	-0.485293900
1656770876.0229380	1.76500	0.000000	106.554500000	-7.78	105.573178648	28.717600000	172.35	-28.462006105	1.247605000
1656770877.9830880	1.76500	0.000000	97.437500000	-7.78	96.540142317	27.985800000	172.34	-27.735938433	1.191696000
1656770879.1964769	1.76300	0.000000	101.509500000	-7.81	100.567430380	28.643800000	172.29	-28.384854308	0.720079400
1656770881.0914221	1.76500	0.000000	104.409000000	-7.78	103.448917686	27.928600000	172.36	-27.680806471	1.063400000
1656770882.3065579	1.76600	0.000000	105.524500000	-7.79	104.551167649	29.104000000	172.28	-28.840484965	0.799512900
1656770884.0964079	1.76400	0.000000	100.594000000	-7.79	99.664717370	29.001400000	172.24	-28.735541774	0.017328460
1656770885.3145130	1.76900	0.000000	111.332500000	-7.80	110.302433949	29.101600000	172.30	-28.838924398	0.220446000
1656770887.0957670	1.76400	0.000000	95.988000000	-7.78	95.103991592	28.598400000	172.33	-28.342669594	-0.885036400
1656770888.3051920	1.76500	0.000000	109.692000000	-7.80	108.677112117	29.533000000	172.31	-29.267672844	-0.903740700
1656770890.1881599	1.76600	0.000000	109.482500000	-7.79	108.472660018	29.807200000	172.28	-29.537318013	0.165443900
1656770891.4062459	1.76300	0.000000	98.820500000	-7.80	97.906196969	28.932200000	172.30	-28.671459429	0.418124200
1656770893.2014771	1.76300	0.000000	105.877500000	-7.81	104.896399163	28.190800000	172.30	-27.936741018	-0.481627300
1656770896.2231381	1.77000	0.000000	110.846000000	-7.79	109.822009877	28.302800000	172.40	-28.054436451	-0.409853500
1656770897.4391730	1.76400	0.004314	92.812000000	-7.77	91.959871233	29.642800000	172.30	-29.375655414	-0.070431720
1656770899.1961341	1.76900	0.010066	65.975500000	-7.73	65.375354935	26.476600000	172.30	-26.237618060	1.210071000
1656770900.4128890	1.76500	0.014380	28.982300000	-7.66	28.723541526	20.895200000	172.39	-20.711260894	0.247679200
1656770902.1316710	1.77900	0.020132	52.719500000	-7.75	52.238450871	14.650900000	172.28	-14.518247017	-1.069333000
1656770903.3959301	1.76900	0.024446	92.020500000	-7.79	91.170418959	25.141400000	172.40	-24.920778459	0.150735200
1656770905.1293099	1.76700	0.030198	129.052000000	-7.82	127.850642691	30.291200000	172.31	-30.019061107	1.122070000
1656770906.3454411	1.77800	0.033074	176.497500000	-7.91	174.819055142	32.503800000	172.16	-32.200291617	-0.804568100
1656770908.1083629	1.77300	0.040264	211.936000000	-7.93	209.908311909	32.863800000	172.06	-32.548426531	-1.093064000
1656770909.3201301	1.77300	0.043140	249.368000000	-7.98	246.953267162	31.097000000	172.04	-30.797680615	0.041761180
1656770913.1293290	1.76900	0.056082	311.471000000	-8.05	308.404883923	25.797000000	171.83	-25.535436332	-0.399800200
1656770914.4358411	1.77800	0.060396	367.796500000	-8.14	364.089150169	23.894400000	171.78	-23.648918103	0.877257300
1656770915.6516049	1.77300	0.064710	371.020000000	-8.14	367.285658265	22.599800000	171.68	-22.361830599	0.863455900
1656770917.1117060	1.77600	0.069024	395.472000000	-8.17	391.456303897	20.714000000	171.55	-20.489244889	-0.523900800
1656770918.3254681	1.76800	0.073338	410.902500000	-8.18	406.717877909	19.223760000	171.47	-19.011312226	0.896993300
1656770920.1542361	1.77800	0.080528	454.123000000	-8.23	449.443906213	17.063700000	171.51	-16.876709933	0.892831400
1656770923.4334900	1.77500	0.090594	491.450000000	-8.27	486.341995713	13.823580000	171.22	-13.661444123	-0.658548500
1656770924.6422701	1.76900	0.094908	502.475000000	-8.29	497.229679757	12.693480000	170.95	-12.535325154	-0.659332000
1656770926.0079679	1.77600	0.099222	528.145000000	-8.32	522.591786986	11.646820000	170.95	-11.501706050	-0.845317300
1656770927.2243769	1.77100	0.106412	544.740000000	-8.34	538.979248281	9.844380000	170.62	-9.712807908	1.625205000
1656770929.3191459	1.76800	0.110726	554.240000000	-8.35	548.370362064	9.088560000	170.46	-8.962866453	-1.091786000
1656770930.5255761	1.77200	0.115040	576.175000000	-8.37	570.037979298	8.077660000	170.45	-7.965806824	-1.249836000
1656770931.9128709	1.77200	0.119354	587.120000000	-8.39	580.839522654	7.038160000	170.10	-6.933357055	1.135995000
1656770933.1236451	1.76700	0.123668	609.970000000	-8.42	603.398421601	6.032020000	169.20	-5.925176342	1.447549000
1656770935.0475111	1.77100	0.129420	619.700000000	-8.42	613.014090821	5.204720000	168.87	-5.106828196	0.758312300
1656770936.2666140	1.77100	0.133734	628.705000000	-8.44	621.902632588	4.267720000	168.73	-4.185367835	-0.685041200
1656770938.2253950	1.77100	0.139486	647.855000000	-8.46	640.805568448	3.154300000	167.48	-3.079268124	-0.759328100
1656770941.4604089	1.77200	0.150990	672.690000000	-8.49	665.318424785	1.515160000	159.23	-1.416729504	-0.532058200
1656770944.7539871	1.77200	0.161056	708.510000000	-8.53	700.680034759	0.345114000	50.41	0.219956095	-0.290944700
1656770948.0468390	1.77100	0.172560	729.185000000	-8.56	721.069844995	1.775632000	3.02	1.773159476	0.096474950
1656770950.2553060	1.76300	0.179750	733.495000000	-8.56	725.320447008	2.652120000	-1.12	2.651616925	-0.864929200
1656770951.4610939	1.77600	0.184064	760.810000000	-8.59	752.271619939	3.151620000	-1.99	3.149715445	-0.975474300
1656770953.2223930	1.76800	0.189816	764.510000000	-8.59	755.930095766	4.058940000	-2.98	4.053465990	0.718761400
1656770956.4574080	1.75800	0.201320	773.245000000	-8.60	764.542853680	4.847660000	-3.52	4.838535306	0.516305100
1656770957.6625509	1.77300	0.205634	802.425000000	-8.64	793.318876271	5.271480000	-4.25	5.256998039	-0.946012400
1656770959.1302841	1.77100	0.209948	810.130000000	-8.65	800.910931137	6.222160000	-5.00	6.198501729	-0.399305700
1656770960.3414061	1.77000	0.214262	809.905000000	-8.65	800.688491579	6.423620000	-5.05	6.398724644	1.536953000
1656770962.1705079	1.76900	0.220014	824.935000000	-8.66	815.521445350	7.179420000	-4.80	7.154240764	0.281339900
1656770963.4339459	1.77400	0.224328	831.610000000	-8.67	822.107152018	7.647320000	-5.21	7.615677096	1.107978000
1656770965.1611950	1.76600	0.230080	840.270000000	-8.68	830.641646900	8.188520000	-5.33	8.153140996	-0.017940420
1656770966.3633361	1.76900	0.234394	843.510000000	-8.69	833.831182565	8.215340000	-5.62	8.175907279	-0.977204400
1656770968.1382561	1.77100	0.240146	860.870000000	-8.71	850.951091494	9.012260000	-5.27	8.974106706	-0.889320300
1656770971.3806090	1.76700	0.250212	872.770000000	-8.72	862.672435211	9.650020000	-5.79	9.600788795	1.228984000
1656770972.6372571	1.77000	0.254526	883.720000000	-8.74	873.467656496	10.188900000	-6.11	10.131058605	1.160797000
1656770973.9640801	1.77400	0.258840	892.035000000	-8.74	881.671998604	10.688380000	-6.27	10.624445060	-0.954585100
1656770975.1768360	1.76900	0.263154	891.425000000	-8.74	881.069085132	10.888660000	-5.82	10.832533018	0.358837200
1656770977.1326201	1.77200	0.270344	906.110000000	-8.76	895.540176900	11.414360000	-5.96	11.352702498	1.108967000
1656770980.3859510	1.77800	0.280410	925.910000000	-8.78	915.050061441	12.164200000	-6.22	12.092545830	0.746118100
1656770981.6332610	1.77100	0.284724	924.380000000	-8.78	913.552784148	12.461020000	-6.29	12.385910471	-0.510839200
1656770983.0674400	1.77000	0.289038	929.420000000	-8.78	918.518892878	12.667260000	-6.20	12.593216486	1.331572000
1656770984.2755711	1.76600	0.293352	934.300000000	-8.79	923.326709528	12.823420000	-6.22	12.747882643	0.971689000
1656770986.1515670	1.76500	0.300542	939.795000000	-8.80	928.742126889	13.194160000	-6.37	13.112803374	0.496898900
1656770987.3763139	1.76700	0.303418	947.425000000	-8.81	936.252027360	13.480260000	-6.44	13.395250402	1.065504000
1656770989.1405950	1.77200	0.309170	957.340000000	-8.81	946.034743655	13.970220000	-6.39	13.883428039	-0.474994000
1656770990.3540030	1.76900	0.313484	957.950000000	-8.81	946.637540147	14.196700000	-6.17	14.114517109	-1.031096000
1656770992.1396010	1.76800	0.319236	961.155000000	-8.82	949.789264377	14.506660000	-6.50	14.413294414	0.975191000
1656770993.3483710	1.77200	0.323550	971.685000000	-8.83	960.163520987	14.767720000	-6.29	14.678706702	-1.188983000
1656770995.0897269	1.76900	0.329302	975.195000000	-8.84	963.616217265	15.063360000	-6.47	14.967480589	-0.663039600
1656770996.3413930	1.76800	0.333616	981.755000000	-8.84	970.082527376	15.302980000	-6.56	15.202848807	0.008222898
1656770998.0657859	1.77100	0.339368	989.535000000	-8.86	977.738143203	15.530660000	-6.49	15.431255805	0.958421600
1656770999.2775590	1.77500	0.343682	988.775000000	-8.85	977.003139086	15.733320000	-6.52	15.631498917	0.458335600
1656771001.1402349	1.76800	0.349434	996.710000000	-8.86	984.811531467	16.148160000	-6.58	16.041724654	0.129311500
1656771002.3473699	1.76700	0.353748	1002.965000000	-8.87	990.975674999	16.304320000	-6.41	16.202456241	-0.523446200
1656771004.1824801	1.76200	0.359500	1002.660000000	-8.87	990.658129111	16.553480000	-6.45	16.448700871	-0.360411200
1656771005.3872650	1.76900	0.363814	1009.220000000	-8.87	997.139605710	16.706060000	-6.42	16.601295439	0.816322900
1656771007.1601789	1.77400	0.369566	1019.445000000	-8.89	1007.192757231	17.093500000	-6.55	16.981857335	-0.835923200
1656771008.3802831	1.76800	0.373880	1020.970000000	-8.89	1008.699428954	17.429660000	-6.42	17.320357707	-1.058085000
1656771010.1425791	1.76700	0.379632	1024.785000000	-8.90	1012.451984686	17.496420000	-6.43	17.386288927	0.866834500
1656771011.3529940	1.76800	0.383946	1028.750000000	-8.90	1016.369266964	17.657360000	-6.54	17.542456192	-0.926650000
1656771013.1415839	1.76300	0.389698	1030.735000000	-8.90	1018.330378016	17.871940000	-6.57	17.754571581	1.104392000
1656771014.3569829	1.76900	0.394012	1036.535000000	-8.90	1024.043781539	18.013800000	-6.67	17.891802387	0.033685640
1656771018.1143169	1.77100	0.406954	1048.130000000	-8.92	1035.448034112	18.491820000	-6.65	18.367483360	-0.384678800
1656771019.3476720	1.77500	0.411268	1053.470000000	-8.93	1040.706307118	18.811300000	-6.57	18.687762626	-0.853351500
1656771020.5644281	1.76800	0.414144	1054.235000000	-8.92	1041.479165983	19.018720000	-6.50	18.896314571	-0.440466400
1656771022.0484691	1.76800	0.419896	1056.675000000	-8.93	1043.855297207	19.056880000	-6.47	18.935581536	-1.108021000
1656771023.2662220	1.77000	0.424210	1062.170000000	-8.93	1049.283631235	19.261920000	-6.49	19.138405869	0.011024550
1656771025.1425731	1.76700	0.429962	1066.745000000	-8.94	1053.785772956	19.538560000	-6.51	19.412576984	0.517210300
1656771026.3519919	1.76200	0.434276	1065.985000000	-8.94	1053.035005727	19.626760000	-6.70	19.492881793	-0.426457700
1656771028.1685090	1.77500	0.440028	1075.900000000	-8.95	1062.794513971	19.765040000	-6.58	19.635002308	1.059981000
1656771029.3772650	1.76400	0.444342	1077.125000000	-8.95	1064.004592305	20.098800000	-6.74	19.959978637	0.741627400
1656771031.1485519	1.76400	0.450094	1078.495000000	-8.96	1065.340324351	20.179800000	-6.47	20.051354066	-0.769462300
1656771032.3649559	1.77000	0.454408	1084.905000000	-8.96	1071.672139963	20.301400000	-6.58	20.167833500	-0.487313000
1656771034.1452079	1.76500	0.460160	1086.585000000	-8.96	1073.313924887	20.566200000	-6.53	20.432857305	0.033314820
1656771035.3549790	1.77000	0.464474	1090.095000000	-8.97	1076.763262525	20.640000000	-6.58	20.503958151	-1.050626000
1656771037.1471989	1.77000	0.470226	1094.215000000	-8.97	1080.832875395	20.902400000	-6.57	20.765129976	1.439186000
1656771038.3639550	1.77100	0.474540	1096.960000000	-8.98	1083.526387670	21.026200000	-6.55	20.888871717	0.558533900
1656771040.0833721	1.76800	0.480292	1100.315000000	-8.98	1086.840301606	21.264800000	-6.62	21.123104302	0.709696900
1656771041.2891500	1.77000	0.483168	1102.605000000	-8.98	1089.084236933	21.374400000	-6.66	21.230162536	-0.927393300
1656771043.0488150	1.76800	0.488920	1105.960000000	-8.98	1092.398096035	21.493600000	-6.63	21.349860443	-0.108914500
1656771044.2642181	1.76800	0.493234	1109.320000000	-8.99	1095.680596616	21.605600000	-6.62	21.461633418	-0.233426600
1656771046.1481919	1.77000	0.500424	1112.675000000	-8.99	1098.994345942	21.822600000	-6.59	21.678501361	1.038969000
1656771047.3539741	1.77200	0.504738	1115.725000000	-8.99	1102.006845328	21.937000000	-6.55	21.793723015	0.610816100
1656771049.1754720	1.77200	0.510490	1119.695000000	-9.01	1105.891347863	22.149200000	-6.55	22.004537074	-1.104561000
1656771050.3952279	1.76900	0.514804	1120.305000000	-9.01	1106.493827755	22.268400000	-6.61	22.120553946	-1.226520000
1656771052.1535299	1.76900	0.520556	1123.510000000	-9.01	1109.640893020	22.397200000	-6.65	22.246332432	1.134141000
1656771053.3629479	1.76300	0.523432	1127.170000000	-9.01	1113.274195715	22.559400000	-6.61	22.409621916	0.363286700
1656771055.1535280	1.76500	0.530622	1128.545000000	-9.01	1114.613738741	22.647600000	-6.55	22.499952371	-0.707414100
1656771056.3679349	1.77200	0.533498	1131.750000000	-9.02	1117.760604073	22.795400000	-6.53	22.647332584	-0.692169500
1656771058.1531711	1.77400	0.539250	1136.020000000	-9.02	1121.977823228	22.969400000	-6.65	22.814678092	-1.086431000
1656771059.3643019	1.76700	0.543564	1136.480000000	-9.02	1122.413476590	23.088600000	-6.50	22.940274368	1.284480000
1656771061.0817249	1.76900	0.549316	1140.600000000	-9.02	1126.482482224	23.186400000	-6.62	23.031619968	-0.877329700
1656771062.2881451	1.76700	0.553630	1142.890000000	-9.03	1128.725359995	23.367600000	-6.65	23.210195816	-0.430825200
1656771064.0634100	1.76300	0.559382	1144.110000000	-9.03	1129.930239676	23.422400000	-6.47	23.273038245	1.038432000
1656771065.2845039	1.77300	0.563696	1147.160000000	-9.03	1132.942438880	23.472400000	-6.59	23.317125294	0.997026200
1656771067.1541660	1.77100	0.569448	1150.365000000	-9.04	1136.088803509	23.787200000	-6.54	23.632406766	-1.111069000
1656771068.3649361	1.76200	0.573762	1151.435000000	-9.04	1137.126581040	23.880200000	-6.53	23.725370706	1.323455000
1656771070.1800931	1.76700	0.579514	1153.720000000	-9.04	1139.383186265	23.885000000	-6.52	23.730707788	-0.970036100
1656771071.3872430	1.76500	0.583828	1157.535000000	-9.05	1143.131722289	24.047000000	-6.70	23.882970418	1.060145000
1656771073.1585031	1.77500	0.589580	1160.590000000	-9.05	1146.148708740	24.192400000	-6.62	24.031196556	0.091448480
1656771074.3639340	1.77300	0.593894	1160.740000000	-9.05	1146.296842281	24.390400000	-6.62	24.227877204	-0.200465800
1656771076.1571541	1.76700	0.599646	1163.795000000	-9.05	1149.294656562	24.445200000	-6.49	24.288448874	-0.018476030
1656771077.3689220	1.77100	0.603960	1166.540000000	-9.05	1152.005455141	24.523800000	-6.56	24.363041259	-0.788252100
1656771079.1551580	1.76700	0.609712	1167.605000000	-9.06	1153.037938157	24.640800000	-6.58	24.478683821	-0.542194300
1656771080.3619390	1.77100	0.614026	1169.590000000	-9.06	1154.998173260	24.733600000	-6.56	24.571761922	1.372853000
1656771082.0876901	1.76500	0.619778	1171.420000000	-9.06	1156.805342146	24.895800000	-6.52	24.734978227	-0.920757500
1656771083.3040910	1.76800	0.624092	1173.405000000	-9.06	1158.765577249	24.969800000	-6.50	24.809389176	-1.136120000
1656771085.0637591	1.77000	0.629844	1176.150000000	-9.07	1161.456929399	25.112800000	-6.46	24.953547091	1.230548000
1656771086.2791610	1.77100	0.634158	1177.680000000	-9.07	1162.967815852	25.193800000	-6.61	25.026531407	-0.310886300
1656771088.1565001	1.76500	0.639910	1178.745000000	-9.07	1164.000054575	25.255800000	-6.66	25.085370302	1.427938000
1656771089.3639309	1.76800	0.644224	1181.800000000	-9.07	1167.016839518	25.348800000	-6.46	25.188050497	-0.119626800
1656771091.1980381	1.76800	0.649976	1183.475000000	-9.07	1168.670886908	25.539600000	-6.61	25.370035546	-0.929863600
1656771092.3988330	1.77500	0.654290	1185.155000000	-9.08	1170.310296365	25.592000000	-6.59	25.423011320	1.211021000
1656771094.1664851	1.77000	0.660042	1187.290000000	-9.08	1172.418554342	25.780400000	-6.54	25.612636182	0.987673600
1656771095.3752570	1.76600	0.664356	1189.120000000	-9.08	1174.205978852	25.804200000	-6.53	25.636588938	-0.189175800
1656771097.1614900	1.77000	0.670108	1191.410000000	-9.08	1176.467257521	25.899600000	-6.51	25.732601525	1.357403000
1656771098.3742521	1.76800	0.674422	1191.565000000	-9.08	1176.620313501	25.966400000	-6.68	25.790227705	1.405814000
1656771100.1634851	1.77300	0.680174	1194.920000000	-9.09	1179.913472313	26.138000000	-6.47	25.971629678	-0.515000600
1656771101.3752480	1.77000	0.684488	1196.140000000	-9.09	1181.118150815	26.238200000	-6.47	26.071191897	-1.075183000
1656771103.0956590	1.77000	0.690240	1198.275000000	-9.09	1183.226338195	26.281000000	-6.60	26.106829653	-1.096031000
1656771104.2984509	1.76900	0.694554	1199.650000000	-9.09	1184.584070114	26.371600000	-6.44	26.204984868	0.523967000
1656771106.0693741	1.77700	0.700306	1202.245000000	-9.10	1187.126583812	26.488400000	-6.37	26.324761936	1.045849000
1656771107.2735240	1.76500	0.704620	1202.705000000	-9.10	1187.580799241	26.602800000	-6.49	26.432528427	-1.000936000
1656771109.0657361	1.77200	0.710372	1205.145000000	-9.10	1189.990115865	26.691200000	-6.56	26.516233490	0.393404200
1656771110.2825069	1.76900	0.714686	1206.975000000	-9.10	1191.777115260	26.731600000	-6.56	26.556688513	1.210897000
1656771112.1614799	1.76800	0.720438	1207.130000000	-9.10	1191.930163544	26.841400000	-6.53	26.667051810	0.891059900
1656771113.3699019	1.76200	0.724752	1208.805000000	-9.10	1193.584072422	26.862800000	-6.52	26.688952434	-0.194655600
1656771115.1710980	1.77100	0.730504	1210.790000000	-9.11	1195.524013508	26.970000000	-6.52	26.795779319	-1.022155000
1656771116.3742521	1.76800	0.734818	1211.860000000	-9.11	1196.580522642	27.137000000	-6.55	26.960084402	-1.051737000
1656771118.1674600	1.77400	0.740570	1214.450000000	-9.11	1199.117729019	27.263400000	-6.50	27.087931399	1.156965000
1656771119.3802271	1.77100	0.744884	1215.825000000	-9.11	1200.475369825	27.344400000	-6.59	27.163839901	-0.708650600
1656771121.1684611	1.77100	0.750636	1216.285000000	-9.11	1200.949730977	27.416000000	-6.62	27.232985416	-0.640585600
1656771122.3722460	1.76600	0.754950	1217.655000000	-9.11	1202.282266317	27.492200000	-6.61	27.309340345	-1.006498000
1656771124.0982881	1.77100	0.760702	1219.790000000	-9.11	1204.390312224	27.530400000	-6.50	27.353212974	1.057591000
1656771125.3153961	1.77500	0.763578	1220.405000000	-9.12	1204.977297807	27.573200000	-6.59	27.391129092	1.260995000
1656771127.0773420	1.76700	0.770768	1222.080000000	-9.11	1206.651401276	27.725800000	-6.58	27.543054404	-0.194161300
1656771128.2874739	1.76700	0.773644	1223.300000000	-9.12	1207.835700777	27.752000000	-6.64	27.565735386	-0.795503700
1656771130.0727079	1.77300	0.779396	1225.440000000	-9.12	1209.948648051	27.890400000	-6.55	27.708239612	1.344096000
1656771131.2791359	1.77100	0.783710	1226.505000000	-9.12	1211.000184895	27.940400000	-6.54	27.758580161	-0.262432600
1656771133.1714430	1.76700	0.790900	1227.115000000	-9.12	1211.602473604	28.095400000	-6.63	27.907510565	-0.104505600
1656771134.3858480	1.77100	0.793776	1228.640000000	-9.13	1213.087795306	28.090600000	-6.53	27.908472222	0.223618500
1656771136.1790669	1.77200	0.800966	1230.170000000	-9.13	1214.598428467	28.269400000	-6.53	28.085776242	1.262067000
1656771137.3888400	1.76600	0.803842	1231.235000000	-9.13	1215.649947628	28.312400000	-6.44	28.133855539	0.823451300
1656771139.1744320	1.77300	0.811032	1233.070000000	-9.13	1217.441233104	28.336200000	-6.67	28.144294418	-0.997557600
1656771140.3822019	1.77300	0.813908	1233.680000000	-9.13	1218.043501550	28.434000000	-6.61	28.244876124	-0.810582500
1656771142.1784279	1.77000	0.821098	1234.745000000	-9.13	1219.095003016	28.560400000	-6.58	28.372153410	1.265733000
1656771143.3898349	1.77000	0.823974	1235.510000000	-9.13	1219.850306887	28.634200000	-6.58	28.445810536	1.144110000
1656771145.1056190	1.76900	0.829726	1237.035000000	-9.14	1221.335411755	28.660400000	-6.57	28.472181719	0.428053400
1656771146.3110440	1.77000	0.834040	1238.410000000	-9.14	1222.692961211	28.760600000	-6.55	28.573099585	0.791561500
1656771148.0813229	1.77400	0.839792	1239.935000000	-9.14	1224.198606971	28.784400000	-6.48	28.600505407	0.872561500
1656771149.2914331	1.77000	0.844106	1240.695000000	-9.14	1224.948961579	28.875000000	-6.52	28.688130111	0.961512000
1656771151.0783300	1.77100	0.849858	1241.610000000	-9.14	1225.852349035	29.006200000	-6.67	28.810109632	0.565949800
1656771152.3004341	1.77100	0.854172	1242.070000000	-9.14	1226.306511035	28.937000000	-6.54	28.748694869	-1.080209000
1656771154.1764109	1.77700	0.859924	1244.360000000	-9.14	1228.546746448	29.182600000	-6.68	28.984606993	0.450919400
1656771155.3798571	1.76900	0.864238	1245.120000000	-9.14	1229.297088412	29.216000000	-6.52	29.026923266	-1.107196000
1656771157.1873939	1.76400	0.869990	1245.425000000	-9.14	1229.598212490	29.242200000	-6.44	29.057792008	0.745747100
1656771158.4021630	1.77700	0.874304	1247.105000000	-9.14	1231.256863149	29.316000000	-6.61	29.121362984	-0.820429400
1656771160.1883900	1.77800	0.880056	1248.785000000	-9.14	1232.915513808	29.447200000	-6.52	29.256627013	-0.396668700
1656771161.3938141	1.76600	0.884370	1248.935000000	-9.15	1233.042816485	29.547400000	-6.59	29.351937931	0.553384400
1656771163.1794150	1.77300	0.890122	1250.160000000	-9.15	1234.252228864	29.571200000	-6.58	29.376645847	0.684565300
1656771164.3842020	1.77200	0.894436	1251.230000000	-9.15	1235.308613555	29.659400000	-6.57	29.464621096	-1.307932000
1656771166.1182151	1.77500	0.900188	1252.450000000	-9.16	1236.492226350	29.692800000	-6.56	29.498157361	-1.103488000
1656771167.3712480	1.77500	0.904502	1253.060000000	-9.15	1237.115327558	29.790600000	-6.62	29.591733853	-1.123224000
1656771169.1132269	1.77100	0.910254	1254.280000000	-9.16	1238.298909870	29.831000000	-6.53	29.637232877	1.444584000
1656771170.3190100	1.77100	0.914568	1254.740000000	-9.16	1238.753048897	29.900200000	-6.52	29.706695340	0.050371990
1656771172.0796750	1.76900	0.920320	1255.960000000	-9.16	1239.957504576	30.029000000	-6.69	29.824532458	-0.730116400
1656771173.2900860	1.76900	0.924634	1256.115000000	-9.16	1240.110529683	29.907400000	-6.91	29.690414509	-0.998053100
1656771175.1800461	1.77000	0.930386	1257.790000000	-9.16	1241.764188096	30.091000000	-6.57	29.893386697	-0.423780000
1656771176.3951600	1.77800	0.934700	1258.860000000	-9.16	1242.799571349	30.241200000	-6.65	30.037862027	-1.007612000
1656771178.1950021	1.77200	0.940452	1259.625000000	-9.16	1243.575807910	30.353200000	-6.69	30.146524979	0.425210300
1656771179.4021411	1.77500	0.944766	1260.540000000	-9.16	1244.458138053	30.365200000	-6.60	30.163962702	1.520968000
1656771181.1833949	1.77100	0.950518	1261.300000000	-9.16	1245.208442037	30.365200000	-6.43	30.174422549	1.242662000
1656771182.3911669	1.77400	0.954832	1262.065000000	-9.16	1245.963682232	30.462800000	-6.55	30.263838513	0.569410700
1656771184.1830330	1.77000	0.960584	1263.130000000	-9.17	1246.994026589	30.586800000	-6.57	30.385930685	-0.090661870
1656771185.4011390	1.77500	0.964898	1263.895000000	-9.17	1247.749254025	30.591600000	-6.58	30.390332455	0.833503500
1656771187.1195791	1.76600	0.970650	1264.660000000	-9.16	1248.525575444	30.691800000	-6.54	30.492075653	0.987221500
1656771188.3339660	1.77400	0.973526	1265.725000000	-9.17	1249.555876517	30.739400000	-6.67	30.531218859	0.737383300
1656771190.0972600	1.77400	0.980716	1266.640000000	-9.17	1250.459187763	30.832400000	-6.73	30.619820882	-1.070527000
1656771191.3000529	1.77200	0.983592	1267.250000000	-9.17	1251.061395260	30.846800000	-6.55	30.645698918	-0.459831100
1656771193.0852900	1.77000	0.989344	1268.165000000	-9.17	1251.964706507	30.932600000	-6.59	30.728346357	0.761155900
1656771194.2930651	1.77000	0.993658	1268.780000000	-9.17	1252.550673692	31.006400000	-6.53	30.804998072	1.503707000
1656771196.1800330	1.76700	1.000848	1269.540000000	-9.17	1253.300952315	31.025600000	-6.53	30.824073358	-0.848118500
1656771197.3901589	1.77700	1.005162	1270.150000000	-9.17	1253.903149631	31.047000000	-6.58	30.842736298	-0.646929700
1656771199.1999850	1.77500	1.010914	1271.525000000	-9.17	1255.260561615	31.180600000	-6.64	30.971700967	-0.920262800
1656771200.4190919	1.76600	1.013790	1271.675000000	-9.17	1255.408642922	31.314000000	-6.62	31.104964448	-1.303152000
1656771202.1880150	1.76900	1.020980	1272.745000000	-9.17	1256.464956247	31.283000000	-6.53	31.079801418	0.186497100
1656771203.3931580	1.77700	1.023856	1273.660000000	-9.18	1257.346980545	31.378400000	-6.56	31.172707894	-0.027046050
1656771205.1873651	1.77500	1.031046	1274.575000000	-9.18	1258.250261237	31.452400000	-6.61	31.243578834	-0.363419100
1656771206.4051189	1.76600	1.033922	1275.035000000	-9.17	1258.725664205	31.507200000	-6.58	31.299908561	-0.073975040
1656771208.1275270	1.77200	1.039674	1275.645000000	-9.18	1259.306556692	31.609600000	-6.55	31.403525958	1.045272000
1656771209.3821790	1.77600	1.043988	1276.560000000	-9.18	1260.209837385	31.669200000	-6.53	31.463492857	1.249009000
1656771211.1122100	1.76800	1.049740	1277.020000000	-9.18	1260.663945712	31.764600000	-6.53	31.558273187	-0.933201300
1656771212.3169961	1.77200	1.054054	1277.935000000	-9.18	1261.567226404	31.740800000	-6.55	31.533870619	-0.222219700
1656771214.0906119	1.77100	1.059806	1278.545000000	-9.19	1262.148046429	31.831400000	-6.53	31.624639288	-0.893481500
1656771215.3030310	1.77000	1.064120	1279.000000000	-9.18	1262.618585899	31.919600000	-6.57	31.709977934	-1.221285000
1656771217.1873610	1.76600	1.069872	1279.915000000	-9.18	1263.521866592	31.965000000	-6.68	31.747740014	0.467111000
1656771218.4140890	1.77300	1.074186	1280.525000000	-9.19	1264.102653527	32.038800000	-6.67	31.821818733	-0.637701700
1656771220.2053220	1.77300	1.079938	1281.290000000	-9.19	1264.857842633	32.069800000	-6.60	31.857265918	1.129773000
1656771221.4237170	1.77600	1.084252	1281.750000000	-9.19	1265.311943272	32.091200000	-6.65	31.875422863	0.317802000
1656771223.1880009	1.77200	1.090004	1282.510000000	-9.19	1266.062196501	32.186600000	-6.64	31.970571439	0.037888230
1656771224.4037609	1.77500	1.094318	1283.120000000	-9.19	1266.664373436	32.253400000	-6.62	32.038093515	-0.277883400
1656771226.1913459	1.76800	1.100070	1283.730000000	-9.19	1267.266550370	32.284400000	-6.59	32.070832119	-0.389458200
1656771227.3957789	1.77400	1.104384	1284.190000000	-9.19	1267.720651009	32.356000000	-6.61	32.140789613	1.324279000
1656771229.1361370	1.77600	1.110136	1285.255000000	-9.19	1268.771992705	32.410800000	-6.60	32.196006031	0.848087900
1656771230.3392870	1.77600	1.114450	1285.565000000	-9.19	1269.056518709	32.429800000	-6.72	32.207002840	1.391847000
1656771232.1135480	1.77400	1.120202	1286.325000000	-9.19	1269.806759229	32.582400000	-6.71	32.359352279	-0.937938500
1656771233.3303089	1.77500	1.124516	1286.785000000	-9.19	1270.260852176	32.620600000	-6.58	32.405591922	-0.610260000
1656771235.0965960	1.77300	1.130268	1287.700000000	-9.19	1271.164102276	32.644400000	-6.56	32.430408993	1.081817000
1656771236.3030241	1.77700	1.134582	1288.005000000	-9.19	1271.465185642	32.749400000	-6.54	32.536285991	1.176124000
1656771238.0975909	1.77200	1.140334	1288.920000000	-9.19	1272.368435742	32.756400000	-6.55	32.542849567	-1.136779000
1656771239.3093569	1.76700	1.144648	1289.225000000	-9.20	1272.647945607	32.775600000	-6.58	32.559963533	0.100389000
1656771241.1963291	1.76300	1.150400	1289.835000000	-9.19	1273.271685842	32.868600000	-6.58	32.652351670	0.384751600
1656771242.4137239	1.76900	1.154714	1290.445000000	-9.20	1273.852258659	32.778000000	-6.19	32.587144310	0.892171700
1656771244.1989641	1.77600	1.160466	1291.210000000	-9.20	1274.607422170	32.983000000	-6.49	32.771891872	-0.472109500
1656771245.4047451	1.77000	1.164780	1291.665000000	-9.19	1275.078186042	33.087800000	-6.50	32.875237574	-1.172213000
1656771247.1993151	1.77300	1.170532	1292.275000000	-9.20	1275.658728236	33.107000000	-6.62	32.885995337	-0.037428900
1656771248.4130771	1.77500	1.174846	1292.735000000	-9.20	1276.112813485	33.242800000	-6.49	33.029635603	-0.162559000
1656771250.1414659	1.76800	1.180598	1293.345000000	-9.20	1276.714970010	33.238000000	-6.64	33.015317112	0.932836600
1656771251.3937731	1.77000	1.184912	1293.800000000	-9.20	1277.142455486	33.269000000	-6.62	33.047315612	1.209331000
1656771253.1271501	1.77600	1.190664	1294.565000000	-9.20	1277.919283062	33.333400000	-6.61	33.112090356	-0.305612800
1656771254.3429079	1.76600	1.194978	1294.870000000	-9.20	1278.220361324	33.431200000	-6.61	33.208838104	1.122234000
1656771256.1042089	1.77200	1.200730	1295.480000000	-9.20	1278.800825655	33.455000000	-6.44	33.243632118	0.488452600
1656771257.3183241	1.76500	1.205044	1295.940000000	-9.20	1279.254903202	33.450200000	-6.56	33.230926803	1.281677000
1656771259.1115429	1.77400	1.210796	1296.550000000	-9.20	1279.857049513	33.545600000	-6.59	33.323689024	-0.975844700
1656771260.3263071	1.77400	1.213672	1297.005000000	-9.20	1280.306191434	33.605200000	-6.55	33.385714576	0.939799900
1656771262.1165240	1.77100	1.220862	1297.615000000	-9.20	1280.908337746	33.660000000	-6.55	33.440156661	1.326627000
1656771263.3412621	1.77300	1.223738	1297.920000000	-9.20	1281.209410902	33.726800000	-6.56	33.506117184	1.177854000
1656771265.2082829	1.77000	1.230928	1298.685000000	-9.20	1281.964561604	33.781600000	-6.68	33.551992932	-0.730034000
1656771266.4147100	1.77500	1.235242	1299.145000000	-9.20	1282.418639150	33.846000000	-6.70	33.614715943	0.979762500
1656771268.2188971	1.77000	1.240994	1299.600000000	-9.20	1282.867781071	33.898600000	-6.52	33.679218957	-0.632797400
1656771269.4250360	1.76800	1.245308	1299.905000000	-9.20	1283.168854227	33.931800000	-6.55	33.710181456	0.018564520
1656771271.1470850	1.76800	1.251060	1300.515000000	-9.20	1283.771000538	33.989200000	-6.55	33.767206560	0.417999700
1656771272.3498771	1.77300	1.253936	1300.820000000	-9.21	1284.050278002	34.179800000	-6.65	33.949979383	0.798359800
1656771274.1241479	1.77000	1.261126	1301.430000000	-9.21	1284.652414093	34.125000000	-6.65	33.895547851	-1.049185000
1656771275.3482430	1.77300	1.264002	1301.890000000	-9.21	1285.106483932	34.113000000	-6.65	33.883628537	-0.976956400
1656771277.1155241	1.76700	1.269754	1302.345000000	-9.21	1285.555618229	34.213200000	-6.71	33.978569701	1.434900000
1656771278.3319249	1.77300	1.274068	1302.960000000	-9.21	1286.162689862	34.239400000	-6.64	34.010008085	0.900533500
1656771280.1141710	1.77300	1.279820	1303.415000000	-9.21	1286.611824159	34.330000000	-6.61	34.101659890	-0.998383400
1656771281.3213050	1.76900	1.284134	1303.720000000	-9.21	1286.912892204	34.353800000	-6.61	34.125301589	-0.827188300
1656771283.2122700	1.77500	1.291324	1304.330000000	-9.21	1287.515028295	34.435000000	-6.59	34.207205462	-1.145474000
1656771284.4246719	1.77000	1.294200	1304.635000000	-9.22	1287.794222604	34.463600000	-6.58	34.236444386	-0.282498000
1656771286.2152541	1.77600	1.301390	1305.245000000	-9.21	1288.418232431	34.570800000	-6.66	34.337511369	-0.644579900
1656771287.4330111	1.77200	1.304266	1305.550000000	-9.21	1288.719300476	34.573200000	-6.64	34.341571743	-0.072285710
1656771289.2168930	1.76800	1.311456	1306.010000000	-9.22	1289.151473526	34.661400000	-6.58	34.433356522	1.375778000
1656771290.4216800	1.77000	1.314332	1306.315000000	-9.21	1289.474438361	34.694800000	-6.59	34.465286832	1.250984000
1656771292.1584010	1.77200	1.320084	1306.925000000	-9.21	1290.076574451	34.799800000	-6.59	34.569592236	-0.796616200
1656771293.4107070	1.76500	1.324398	1307.075000000	-9.22	1290.202726058	34.787800000	-6.54	34.561421272	-0.813714900
1656771295.1454420	1.77200	1.330150	1307.840000000	-9.22	1290.957851116	34.845000000	-6.58	34.615748585	0.096186450
1656771296.3641851	1.77100	1.334464	1308.145000000	-9.22	1291.258914048	34.871200000	-6.52	34.645939184	0.577321200
1656771298.1241331	1.76900	1.340216	1308.605000000	-9.22	1291.712976174	34.902200000	-6.76	34.659844115	-0.930646200
1656771299.3319120	1.77300	1.344530	1308.910000000	-9.22	1292.014039106	34.883200000	-6.64	34.649072521	1.124992000
1656771301.1211460	1.77300	1.350282	1309.365000000	-9.22	1292.463165775	35.028600000	-6.66	34.792222070	0.752051800
1656771302.3402519	1.77100	1.354596	1309.670000000	-9.22	1292.764228706	35.064400000	-6.66	34.827780486	-1.174848000
1656771304.2188790	1.77300	1.360348	1310.130000000	-9.22	1293.218290833	35.169200000	-6.64	34.933578753	0.297860900
1656771305.4246650	1.76800	1.364662	1310.585000000	-9.22	1293.667417501	35.195400000	-6.48	34.970547518	-0.788127900
1656771307.2228670	1.77400	1.370414	1310.890000000	-9.22	1293.946487635	35.257400000	-6.61	35.023316389	0.320438800
1656771308.4366310	1.76900	1.374728	1311.195000000	-9.22	1294.269543365	35.262200000	-6.62	35.027234139	0.750114100
1656771310.2232170	1.77000	1.380480	1311.655000000	-9.22	1294.723605491	35.314800000	-6.61	35.080335295	1.360205000
1656771311.4376280	1.77500	1.384794	1312.115000000	-9.22	1295.155654268	35.448200000	-6.70	35.206400464	-0.595262300
1656771313.1663821	1.77400	1.390546	1312.420000000	-9.22	1295.456712082	35.486400000	-6.58	35.252502933	1.159440000
1656771314.4216659	1.76900	1.394860	1312.725000000	-9.22	1295.779793481	35.484000000	-6.58	35.250544491	1.218971000
1656771316.1550450	1.77200	1.400612	1313.180000000	-9.22	1296.206888932	35.538800000	-6.60	35.303276042	-0.862745400
1656771317.3701761	1.76600	1.404926	1313.485000000	-9.22	1296.507946747	35.679400000	-6.71	35.435151299	1.260130000
1656771319.1294739	1.77300	1.410678	1313.945000000	-9.22	1296.962001156	35.722400000	-6.67	35.480471726	1.535761000
1656771320.3448679	1.76600	1.414992	1314.250000000	-9.22	1297.263058971	35.689000000	-6.57	35.454623570	1.531062000
1656771322.1274760	1.77100	1.420744	1314.705000000	-9.22	1297.712178006	35.712800000	-6.59	35.476981817	-0.437870300
1656771323.3342540	1.77100	1.425058	1315.010000000	-9.22	1298.013235820	35.882200000	-6.25	35.668791959	-0.704818400
1656771325.0692680	1.77100	1.430810	1315.315000000	-9.22	1298.314293635	35.858400000	-6.64	35.618161356	1.063646000
1656771326.3182940	1.77000	1.435124	1315.775000000	-9.22	1298.768348044	35.877400000	-6.68	35.633548180	1.152350000
1656771328.1254771	1.77100	1.440876	1316.080000000	-9.22	1299.069405859	36.039600000	-6.66	35.796399699	-1.108926000
1656771331.3614869	1.77400	1.450942	1316.690000000	-9.22	1299.671521488	36.068200000	-6.56	35.832196824	1.260955000
1656771332.5636261	1.76100	1.455256	1317.150000000	-9.22	1300.125575897	36.120600000	-6.70	35.874213884	-0.162889000
1656771334.0037861	1.77200	1.459570	1317.455000000	-9.23	1300.404516512	36.206400000	-6.68	35.960753141	1.396296000
1656771335.2355189	1.77000	1.463884	1317.760000000	-9.22	1300.727691527	36.235000000	-6.62	35.993114478	-0.107595600
1656771337.1324501	1.77000	1.471074	1318.065000000	-9.23	1301.006621901	36.249400000	-6.62	36.007418352	0.503160700
1656771338.3382339	1.76900	1.473950	1318.370000000	-9.23	1301.307674595	36.282600000	-6.64	36.039519365	-0.843009000
1656771340.1374421	1.76400	1.481140	1318.825000000	-9.23	1301.756785992	36.354200000	-6.60	36.113272195	-0.964513200
1656771341.3452189	1.76900	1.484016	1318.980000000	-9.23	1301.909779984	36.397200000	-6.70	36.148482513	-0.836005300
1656771343.1334510	1.76900	1.491206	1319.435000000	-9.23	1302.358891381	36.478200000	-6.65	36.232482798	0.536821000
1656771344.3501990	1.76700	1.494082	1319.740000000	-9.23	1302.659944075	36.497200000	-6.55	36.258826076	-0.658012300
1656771346.0732470	1.77000	1.499834	1319.895000000	-9.23	1302.812938067	36.559200000	-6.56	36.319546644	0.874084600
1656771347.2783899	1.77000	1.504148	1320.355000000	-9.23	1303.266984754	36.578400000	-6.56	36.338620784	-1.054662000
1656771349.1330869	1.77000	1.511338	1320.660000000	-9.23	1303.568037448	36.697600000	-6.54	36.458793407	0.259915800
1656771350.3452210	1.76700	1.514214	1320.810000000	-9.23	1303.716096151	36.740400000	-6.68	36.491130152	0.427640500
1656771352.2358150	1.76400	1.521404	1321.270000000	-9.23	1304.147947290	36.764200000	-6.69	36.513872463	1.520513000
1656771353.4499280	1.76700	1.525718	1321.575000000	-9.23	1304.471195532	36.788200000	-6.62	36.542621610	1.363706000
1656771355.1793220	1.76600	1.531470	1321.725000000	-9.23	1304.597051043	36.845400000	-6.65	36.597656228	-0.352541500
1656771356.4359710	1.76600	1.534346	1322.185000000	-9.23	1305.073300921	36.888200000	-6.69	36.637028146	-0.061943980
1656771358.1639991	1.77000	1.540098	1322.490000000	-9.23	1305.374353615	36.969400000	-6.67	36.719476079	-1.146048000
1656771359.3677909	1.76800	1.544412	1322.640000000	-9.23	1305.500193756	37.050400000	-6.80	36.789462907	-0.293539800
1656771361.1374221	1.76800	1.550164	1323.100000000	-9.23	1305.976459004	37.074200000	-6.65	36.824917806	0.024250400
1656771362.3462059	1.76600	1.554478	1323.250000000	-9.23	1306.102288897	37.079000000	-6.60	36.833268776	-1.041644000
1656771364.1410601	1.76700	1.560230	1323.555000000	-9.23	1306.425570400	37.193400000	-6.67	36.941509447	-0.395308900
1656771365.3488381	1.76600	1.564544	1323.860000000	-9.23	1306.704384039	37.241200000	-6.62	36.993047286	-1.017128000
1656771367.0832109	1.76400	1.570296	1324.165000000	-9.23	1307.005431610	37.255400000	-6.65	37.004447578	-0.601236300
1656771368.3322361	1.77100	1.574610	1324.320000000	-9.23	1307.158422998	37.260200000	-6.62	37.011920682	0.012878640
1656771370.0706050	1.77300	1.580362	1324.780000000	-9.23	1307.612461958	37.312600000	-6.67	37.060355947	1.405607000
1656771371.2800190	1.76300	1.584676	1324.930000000	-9.23	1307.760518140	37.369800000	-6.77	37.109387894	0.087287240
1656771373.1623700	1.76200	1.590428	1325.390000000	-9.23	1308.214557099	37.498600000	-6.64	37.246918598	-0.333299300
1656771374.3697760	1.76800	1.594742	1325.540000000	-9.23	1308.362613282	37.527200000	-6.58	37.280301917	0.794527500
1656771376.1829391	1.77100	1.600494	1325.845000000	-9.23	1308.663660852	37.551000000	-6.74	37.291637201	1.215140000
1656771377.4369590	1.76800	1.604808	1326.000000000	-9.23	1308.816652241	37.551000000	-6.74	37.291637201	0.918046200
1656771379.1679809	1.76600	1.610560	1326.455000000	-9.23	1309.265755994	37.627400000	-6.67	37.373027807	0.674964500
1656771380.3847351	1.76700	1.614874	1326.610000000	-9.23	1309.418747383	37.737000000	-6.61	37.485998814	-1.138716000
1656771382.1480319	1.76600	1.620626	1326.915000000	-9.23	1309.719794953	37.765600000	-6.70	37.507531656	0.296460500
1656771383.3561659	1.76900	1.624940	1327.065000000	-9.24	1309.845543876	37.832400000	-6.69	37.574799086	0.122637000
1656771385.1473930	1.76900	1.630692	1327.370000000	-9.23	1310.168898707	37.880000000	-6.69	37.622074978	1.074234000
1656771386.3617940	1.76400	1.635006	1327.675000000	-9.24	1310.447628764	37.880000000	-6.67	37.623920157	1.098256000
1656771388.0885429	1.76300	1.640758	1327.980000000	-9.23	1310.770993848	37.932600000	-6.71	37.672926680	1.142627000
1656771389.3521781	1.76800	1.645072	1328.285000000	-9.24	1311.049713652	37.994600000	-6.77	37.729364860	0.182706500
1656771391.1480269	1.76800	1.650824	1328.440000000	-9.23	1311.225032808	38.004000000	-6.71	37.743372819	0.426652100
1656771392.3607941	1.76900	1.655138	1328.590000000	-9.24	1311.350756096	38.004000000	-6.66	37.747543651	-0.719775000
1656771394.2507520	1.76700	1.660890	1328.895000000	-9.24	1311.651798540	38.123200000	-6.79	37.856124492	-0.917543400
1656771395.4618680	1.76200	1.665204	1329.355000000	-9.24	1312.105829766	38.137600000	-6.65	37.881167640	-0.781208700
1656771397.1922679	1.76600	1.670956	1329.355000000	-9.24	1312.105829766	38.213800000	-6.62	37.958705066	-0.667694500
1656771398.4469221	1.76800	1.675270	1329.660000000	-9.24	1312.406872210	38.299800000	-6.73	38.035735649	-1.072503000
1656771400.1782990	1.76700	1.681022	1329.815000000	-9.23	1312.582214479	38.314000000	-6.61	38.059622778	1.083835000
1656771401.3980520	1.76500	1.685336	1330.120000000	-9.24	1312.860903437	38.390400000	-6.71	38.127592741	-0.847583200
1656771403.1553581	1.76600	1.691088	1330.425000000	-9.24	1313.161945881	38.423600000	-6.73	38.159153561	0.930611400
1656771404.3711181	1.76900	1.695402	1330.425000000	-9.24	1313.161945881	38.452200000	-6.75	38.185666921	0.725395000
1656771406.1573541	1.76800	1.701154	1330.730000000	-9.24	1313.462988325	38.566800000	-6.73	38.300894773	-1.050543000
1656771407.3621390	1.76900	1.704030	1331.035000000	-9.24	1313.764030769	38.552400000	-6.74	38.285646692	-0.499673100
1656771409.0965140	1.76200	1.711220	1331.340000000	-9.24	1314.065073213	38.647800000	-6.67	38.386059592	-1.031096000
1656771410.2999461	1.76700	1.714096	1331.340000000	-9.24	1314.065073213	38.600200000	-6.65	38.340189003	-0.867811700
1656771412.1520090	1.76900	1.721286	1331.645000000	-9.24	1314.366115657	38.709800000	-6.69	38.446224867	-1.082763000
1656771413.3611419	1.77300	1.724162	1331.950000000	-9.25	1314.644754310	38.752800000	-6.63	38.493638654	0.678426400
1656771415.2570889	1.76900	1.731352	1332.255000000	-9.24	1314.968200545	38.824200000	-6.68	38.560319345	0.845451000
1656771416.4575250	1.76800	1.735666	1332.405000000	-9.24	1315.116254206	38.852800000	-6.68	38.589198309	-0.793690200
1656771418.1982350	1.76800	1.741418	1332.710000000	-9.24	1315.417296650	38.910000000	-6.70	38.644111486	0.403869000
1656771419.4036660	1.76600	1.747170	1333.015000000	-9.24	1315.718339094	38.972000000	-6.67	38.708063962	0.974983800
1656771421.4601800	1.76000	1.751484	1333.170000000	-9.24	1315.871327877	39.019800000	-6.65	38.756962577	1.079798000
1656771422.6659670	1.76800	1.755798	1333.325000000	-9.25	1316.001889741	39.067600000	-6.66	38.803966328	0.966414200
1656771423.9917870	1.77000	1.760112	1333.325000000	-9.25	1316.001889741	39.120000000	-6.64	38.857436159	-0.954583000
1656771425.2550600	1.76600	1.764426	1333.630000000	-9.25	1316.302927055	39.120000000	-6.64	38.857909785	1.097513000
1656771427.1593361	1.76500	1.770178	1333.935000000	-9.25	1316.603964368	39.167800000	-6.67	38.903014254	1.180696000
1656771428.3780861	1.76200	1.774492	1334.085000000	-9.25	1316.752015506	39.182000000	-6.76	38.909442885	0.794322400
1656771430.1024859	1.76900	1.780244	1334.240000000	-9.24	1316.927443992	39.253600000	-6.77	38.979575952	0.774092300
1656771431.3671179	1.76900	1.784558	1334.390000000	-9.24	1317.075497653	39.339400000	-6.77	39.065262702	-0.245622500
1656771433.1623240	1.76900	1.790310	1334.695000000	-9.25	1317.354090134	39.353600000	-6.76	39.079849204	-1.100769000
1656771434.3727391	1.77200	1.794624	1334.850000000	-9.25	1317.507076310	39.420400000	-6.75	39.147155801	-0.138497400
1656771436.2617011	1.76700	1.801814	1335.155000000	-9.25	1317.808113623	39.468200000	-6.73	39.196079920	0.887269700
1656771437.4768140	1.76400	1.804690	1335.305000000	-9.25	1317.956164761	39.506200000	-6.73	39.233817923	-0.969623200
1656771439.2062140	1.76900	1.810442	1335.460000000	-9.25	1318.109150937	39.558800000	-6.73	39.286055263	0.028659010
1656771440.4618750	1.76400	1.814756	1335.610000000	-9.25	1318.257202075	39.587400000	-6.67	39.319296195	-0.620313000
1656771442.1948781	1.76700	1.820508	1335.915000000	-9.25	1318.558239389	39.649400000	-6.85	39.366209677	-1.197758000
1656771443.4090061	1.76800	1.824822	1336.070000000	-9.25	1318.711225565	39.706600000	-6.79	39.428431841	-0.541411500
1656771445.1673050	1.76800	1.830574	1336.220000000	-9.25	1318.859276703	39.806600000	-6.74	39.531168581	1.205004000
1656771446.3830600	1.76900	1.834888	1336.525000000	-9.25	1319.137818806	39.730400000	-6.76	39.454517785	0.599198200
1656771448.1709380	1.76800	1.840640	1336.680000000	-9.25	1319.313300192	39.797200000	-6.71	39.524275254	-0.901145500
1656771449.3906870	1.76300	1.844954	1336.680000000	-9.25	1319.313300192	39.835200000	-6.82	39.553660930	-1.268748000
1656771451.1091030	1.76600	1.850706	1336.985000000	-9.25	1319.614337506	39.916400000	-6.82	39.634287042	-0.607705800
1656771452.3168819	1.76600	1.855020	1337.135000000	-9.25	1319.762388644	39.930600000	-6.71	39.656760411	-1.053921000
1656771454.1699400	1.76500	1.860772	1337.440000000	-9.25	1320.040915347	40.016400000	-6.80	39.734574080	1.045890000
1656771455.3876920	1.76800	1.865086	1337.595000000	-9.25	1320.216412134	40.040400000	-6.60	39.775042884	0.619180000
1656771457.2690289	1.77000	1.870838	1337.750000000	-9.25	1320.369398309	40.049800000	-6.74	39.772685822	1.379197000
1656771458.4768071	1.77200	1.875152	1337.900000000	-9.25	1320.494931094	40.140400000	-6.73	39.863645325	-0.888536900
1656771460.2121780	1.77000	1.880904	1338.055000000	-9.25	1320.670435623	40.159600000	-6.75	39.881232004	1.076665000
1656771461.4149840	1.76800	1.885218	1338.205000000	-9.25	1320.818486761	40.164200000	-6.76	39.884810523	-0.087448050
1656771463.1878860	1.76900	1.890970	1338.510000000	-9.25	1321.096995455	40.193000000	-6.68	39.919815873	0.895384900
1656771464.3906789	1.77100	1.895284	1338.510000000	-9.25	1321.096995455	40.336000000	-6.79	40.052923192	0.431555200
1656771466.1732841	1.76900	1.901036	1338.815000000	-9.25	1321.420561389	40.345400000	-6.76	40.064750063	-0.849767300
1656771467.3830540	1.77100	1.905350	1338.815000000	-9.25	1321.420561389	40.383600000	-6.76	40.103182057	0.595531000
1656771469.1762681	1.76800	1.911102	1339.120000000	-9.25	1321.699059815	40.498000000	-6.79	40.214287617	0.950715500
1656771470.3860400	1.77100	1.915416	1339.275000000	-9.25	1321.852043382	40.550600000	-6.70	40.273995934	0.867946400
1656771472.1184299	1.76900	1.921168	1339.425000000	-9.25	1322.000091996	40.536200000	-6.77	40.253222296	0.830701300
1656771473.3770759	1.76700	1.925482	1339.580000000	-9.25	1322.153075563	40.603000000	-6.72	40.324051838	-0.396091700
1656771475.0994799	1.76400	1.931234	1339.885000000	-9.25	1322.454107743	40.679200000	-6.71	40.400724416	1.271914000
1656771476.3049030	1.77100	1.935548	1339.730000000	-9.25	1322.301124176	40.631600000	-6.80	40.345441374	-0.488877300
1656771478.1762609	1.77000	1.941300	1340.035000000	-9.25	1322.602156356	40.684000000	-6.86	40.392911680	0.142454100
1656771479.3940251	1.76800	1.945614	1340.190000000	-9.25	1322.755139923	40.736400000	-6.80	40.449503292	1.287528000
1656771481.2151611	1.77000	1.951366	1340.495000000	-9.25	1323.056172103	40.822400000	-6.80	40.534897615	-0.194943900
1656771482.4694619	1.77100	1.955680	1340.495000000	-9.25	1323.056172103	40.836600000	-6.85	40.545440241	0.148716600
1656771484.2011981	1.76800	1.961432	1340.645000000	-9.26	1323.181641652	40.870000000	-6.82	40.580639217	0.765235000
1656771485.4059999	1.76700	1.965746	1340.800000000	-9.25	1323.357204284	40.936800000	-6.76	40.652540716	0.468264000
1656771487.1782520	1.76900	1.971498	1341.105000000	-9.25	1323.658236464	40.913000000	-6.70	40.633923928	-1.275671000
1656771488.3966520	1.76900	1.975812	1341.105000000	-9.25	1323.658236464	41.041600000	-6.80	40.753062801	-1.314401000
1656771490.1802549	1.77200	1.981564	1341.255000000	-9.25	1323.806285077	41.070200000	-6.73	40.787538611	1.154946000
1656771491.3866761	1.76900	1.985878	1341.410000000	-9.25	1323.959268644	41.103600000	-6.79	40.815136199	1.385457000
1656771493.1260381	1.76800	1.991630	1341.715000000	-9.25	1324.260300825	41.175200000	-6.77	40.887761524	-0.017075150
1656771494.3737080	1.76800	1.994506	1342.020000000	-9.25	1324.561333005	41.175200000	-6.88	40.879050571	0.654199800
1656771496.1064301	1.77200	2.000258	1341.865000000	-9.25	1324.408349438	41.289600000	-6.73	41.004921974	-1.097843000
1656771497.3178570	1.77100	2.004572	1342.020000000	-9.25	1324.561333005	41.289600000	-6.85	40.994694777	1.131298000
1656771499.1832359	1.77200	2.010324	1342.175000000	-9.26	1324.691711739	41.299200000	-6.77	41.011405802	0.037847030
1656771500.3906620	1.77100	2.014638	1342.480000000	-9.25	1325.015348752	41.299200000	-6.76	41.011915257	-1.204970000
1656771502.2331030	1.76800	2.021828	1342.630000000	-9.25	1325.163397365	41.418400000	-6.83	41.124641093	-0.214432000
1656771503.4834139	1.77000	2.026142	1342.785000000	-9.26	1325.293765826	41.413600000	-6.80	41.121933935	-0.035574720
1656771505.2088110	1.77300	2.031894	1342.785000000	-9.26	1325.293765826	41.561400000	-6.73	41.274848004	1.255598000
1656771506.4185851	1.76800	2.034770	1342.935000000	-9.26	1325.441811913	41.528000000	-6.75	41.240146880	-0.630283800
1656771508.1868689	1.77000	2.041960	1343.090000000	-9.25	1325.617413113	41.647200000	-6.83	41.351299599	1.460733000
1656771509.4135971	1.76900	2.044836	1343.240000000	-9.25	1325.765461726	41.585200000	-6.87	41.286622811	1.073246000
1656771511.1862149	1.77000	2.050588	1343.395000000	-9.26	1325.895819913	41.647200000	-6.85	41.350260766	-1.153958000
1656771512.4049721	1.77000	2.054902	1343.395000000	-9.25	1325.918445293	41.752200000	-6.84	41.455033083	-0.842597000
1656771514.1333640	1.77500	2.060654	1343.700000000	-9.25	1326.219477473	41.776000000	-6.83	41.479704825	0.250851600
1656771515.3926530	1.77200	2.064968	1343.850000000	-9.26	1326.344893043	41.814200000	-6.74	41.524877515	-1.018653000
1656771517.1130581	1.76500	2.070720	1344.155000000	-9.26	1326.645920087	41.852200000	-6.70	41.566206187	1.038186000
1656771518.3248291	1.77300	2.075034	1344.005000000	-9.26	1326.497874000	41.876200000	-6.81	41.580756189	0.647937600
1656771520.1852210	1.77000	2.080786	1344.155000000	-9.26	1326.645920087	41.890400000	-6.92	41.585419072	1.334208000
1656771521.3940010	1.77100	2.085100	1344.460000000	-9.25	1326.969590447	41.985800000	-6.94	41.678002533	1.320981000
1656771523.2307439	1.77200	2.090852	1344.615000000	-9.25	1327.122574014	42.000200000	-6.81	41.703881348	-0.965297000
1656771524.4876649	1.76800	2.095166	1344.615000000	-9.26	1327.099928087	42.019200000	-6.80	41.723789921	0.410501900
1656771526.2147839	1.77100	2.100918	1344.765000000	-9.26	1327.247974173	42.105000000	-6.84	41.805322065	-1.017541000
1656771527.4175749	1.77000	2.105232	1344.765000000	-9.26	1327.247974173	42.167000000	-6.73	41.876272594	-0.805433100
1656771529.1898510	1.76800	2.110984	1345.070000000	-9.25	1327.571654808	42.143200000	-6.77	41.849004047	0.569946000
1656771530.3976331	1.77300	2.115298	1345.070000000	-9.26	1327.549001217	42.257600000	-6.86	41.955252792	0.346147200
1656771532.1902020	1.77100	2.121050	1345.225000000	-9.26	1327.701982173	42.324400000	-6.80	42.026319389	-0.752529400
1656771533.3999829	1.77300	2.125364	1345.225000000	-9.26	1327.701982173	42.357800000	-6.75	42.064195086	-0.772636500
1656771535.1842170	1.77100	2.131116	1345.375000000	-9.26	1327.850028260	42.353000000	-6.88	42.047848119	0.041719970
1656771536.3976259	1.76900	2.135430	1345.680000000	-9.26	1328.151055304	42.419800000	-6.83	42.118410331	0.340255800
1656771538.1163981	1.77200	2.141182	1345.680000000	-9.26	1328.151055304	42.448400000	-6.89	42.142027890	0.966125400
1656771539.3327980	1.77100	2.145496	1345.985000000	-9.26	1328.452082347	42.515000000	-6.75	42.220305447	-1.135048000
1656771541.0944541	1.77100	2.151248	1345.835000000	-9.26	1328.304036260	42.543800000	-6.72	42.251518277	0.502089800
1656771542.3038700	1.77200	2.155562	1345.985000000	-9.26	1328.452082347	42.553200000	-6.84	42.250332049	0.219127500
1656771544.1951940	1.77200	2.161314	1346.140000000	-9.26	1328.605063304	42.620000000	-6.86	42.315059871	-0.924753900
1656771545.4079549	1.77100	2.165628	1346.290000000	-9.26	1328.753109391	42.720200000	-6.76	42.423030522	0.873219700
1656771547.2181180	1.77100	2.171380	1346.600000000	-9.26	1329.059071304	42.672400000	-6.83	42.369215626	0.778170900
1656771548.4318919	1.76600	2.175694	1346.600000000	-9.26	1329.059071304	42.763000000	-6.83	42.459704553	-0.838765300
1656771550.1971750	1.76600	2.181446	1346.905000000	-9.26	1329.360098347	42.772600000	-6.77	42.474010292	-1.149262000
1656771551.4059601	1.77400	2.185760	1346.750000000	-9.26	1329.207117391	42.786800000	-6.83	42.482802822	-0.664192600
1656771553.1968250	1.76900	2.191512	1347.055000000	-9.26	1329.508144434	42.896600000	-6.82	42.593424194	0.878245800
1656771554.4135730	1.77100	2.195826	1347.055000000	-9.26	1329.508144434	42.972800000	-6.84	42.666945590	-0.051478720
1656771556.1868441	1.77100	2.201578	1347.210000000	-9.26	1329.638421177	42.939400000	-6.81	42.636455130	-0.392177500
1656771557.4029570	1.77500	2.205892	1347.055000000	-9.26	1329.485442833	43.039600000	-6.89	42.728960893	0.104962100
1656771559.1253641	1.77100	2.211644	1347.515000000	-9.26	1329.962152434	43.030000000	-6.80	42.726950017	0.720573600
1656771560.3311470	1.76900	2.214520	1347.515000000	-9.26	1329.962152434	43.092000000	-6.89	42.780982695	1.107730000
1656771562.0984361	1.76800	2.220272	1347.665000000	-9.26	1330.087486640	43.135000000	-6.89	42.823130378	-1.309829000
1656771563.3058591	1.77200	2.224586	1347.665000000	-9.26	1330.087486640	43.192200000	-6.91	42.878830041	-1.211354000
1656771565.1928251	1.77600	2.231776	1347.820000000	-9.26	1330.263179478	43.197000000	-6.90	42.884138899	-0.132234500
1656771566.4069569	1.77100	2.236090	1347.970000000	-9.26	1330.411225565	43.316200000	-6.86	43.006278657	0.124655700
1656771568.2217491	1.77100	2.241842	1347.970000000	-9.26	1330.411225565	43.306600000	-6.85	42.997829455	-0.296135900
1656771569.4308980	1.76900	2.244718	1348.125000000	-9.26	1330.564206521	43.340000000	-6.75	43.039586924	1.203149000
1656771571.2081449	1.77200	2.251908	1348.275000000	-9.26	1330.712252608	43.349600000	-6.83	43.041604168	1.247028000
1656771572.4189060	1.77200	2.254784	1348.275000000	-9.26	1330.712252608	43.373400000	-6.83	43.065235070	1.144111000
1656771574.2021599	1.77300	2.260536	1348.430000000	-9.26	1330.842508791	43.464000000	-6.80	43.158432458	-1.098172000
1656771575.4169080	1.77300	2.264850	1348.580000000	-9.26	1330.990552350	43.473600000	-6.85	43.163095861	0.897939800
1656771577.1968100	1.77100	2.272040	1348.580000000	-9.26	1330.990552350	43.569000000	-6.93	43.250698059	-1.122811000
1656771578.4075820	1.76900	2.274916	1348.885000000	-9.26	1331.314306695	43.592800000	-6.91	43.276523590	-1.094259000
1656771580.1379650	1.78000	2.280668	1348.735000000	-9.26	1331.143530694	43.602200000	-6.91	43.285306132	0.052844000
1656771581.3470950	1.77300	2.284982	1349.040000000	-9.26	1331.467287652	43.683400000	-6.89	43.367565400	-0.697442100
1656771583.1054101	1.77800	2.290734	1349.040000000	-9.26	1331.444552598	43.731000000	-6.95	43.409854753	0.179081000
1656771584.3181779	1.77200	2.295048	1349.190000000	-9.26	1331.592596157	43.793000000	-6.89	43.476372983	0.678055100
1656771586.2037859	1.77100	2.300800	1349.345000000	-9.26	1331.768314695	43.769200000	-6.83	43.458768106	1.031099000
1656771587.4215369	1.77200	2.305114	1349.345000000	-9.26	1331.768314695	43.874000000	-6.89	43.556787347	0.756871000
1656771589.2277210	1.76900	2.310866	1349.495000000	-9.26	1331.916360782	43.864600000	-6.83	43.552945129	0.731738800
1656771590.4504600	1.77400	2.315180	1349.650000000	-9.26	1332.046596404	43.912200000	-6.82	43.601846345	-1.040447000
1656771592.2067759	1.77200	2.320932	1349.650000000	-9.26	1332.046596404	44.045800000	-6.83	43.732857716	-0.039406560
1656771593.4198930	1.77200	2.325246	1349.650000000	-9.26	1332.046596404	44.050600000	-7.02	43.720376913	-0.259960600
1656771595.2067740	1.77000	2.330998	1349.955000000	-9.26	1332.347618308	44.060000000	-6.92	43.739223410	0.471560500
1656771596.4115620	1.77300	2.335312	1349.955000000	-9.26	1332.347618308	44.136400000	-6.91	43.816179639	-0.231160500
1656771598.2021461	1.77000	2.341064	1350.105000000	-9.26	1332.495661867	44.141200000	-6.86	43.824823695	-0.973578400
1656771599.4175439	1.77500	2.345378	1350.105000000	-9.26	1332.495661867	44.207800000	-6.89	43.888173945	-0.133141100
1656771601.1369579	1.77200	2.351130	1350.260000000	-9.26	1332.648640211	44.269800000	-6.88	43.950837642	-1.238466000
1656771602.3427470	1.77300	2.355444	1350.260000000	-9.26	1332.648640211	44.227000000	-6.91	43.906122314	-0.375490800
1656771604.1123779	1.77100	2.361196	1350.410000000	-9.26	1332.796683770	44.360400000	-6.88	44.041341267	0.531424400
1656771605.3168099	1.77500	2.365510	1350.410000000	-9.26	1332.796683770	44.279400000	-6.89	43.959812614	1.255104000
1656771607.2091179	1.77300	2.371262	1350.565000000	-9.26	1332.949662114	44.436800000	-6.86	44.118305020	-0.246611200
1656771608.4205329	1.77400	2.375576	1350.720000000	-9.26	1333.102640459	44.470200000	-6.85	44.152577784	0.734663200
1656771610.2370410	1.77800	2.384204	1351.025000000	-9.26	1333.403662362	44.494000000	-6.85	44.176763444	1.189018000
1656771613.2440200	1.77100	2.391394	1351.025000000	-9.26	1333.403662362	44.613200000	-6.91	44.288958345	0.114561700
1656771614.4484539	1.77400	2.395708	1351.175000000	-9.26	1333.551705921	44.622800000	-6.93	44.296799315	-0.448913200
1656771616.2107501	1.77100	2.401460	1351.175000000	-9.26	1333.551705921	44.722800000	-6.92	44.397197928	0.452979100
1656771617.4247279	1.77500	2.405774	1351.480000000	-9.26	1333.852727825	44.665600000	-6.97	44.335891744	-0.891545600
1656771619.2121060	1.77500	2.411526	1351.330000000	-9.26	1333.704684266	44.722800000	-6.94	44.395503423	-1.065995000
1656771620.4328499	1.77400	2.415840	1351.480000000	-9.26	1333.852727825	44.756200000	-6.93	44.429224735	-1.014740000
1656771622.1489151	1.77600	2.421592	1351.480000000	-9.26	1333.852727825	44.823000000	-6.88	44.500614052	-1.148934000
1656771623.3580439	1.77300	2.425906	1351.480000000	-9.26	1333.852727825	44.880200000	-6.95	44.550046651	-0.819812200
1656771625.1173580	1.77700	2.431658	1351.785000000	-9.26	1334.153749728	44.923200000	-6.98	44.590448150	0.498587900
1656771626.3351109	1.77100	2.435972	1351.940000000	-9.26	1334.306728072	44.947000000	-6.86	44.624848228	0.966166800
1656771628.1133621	1.76800	2.441724	1352.090000000	-9.26	1334.454771631	44.913600000	-6.94	44.584338861	-0.994383600
1656771629.3227811	1.77700	2.444600	1351.940000000	-9.26	1334.306728072	45.037600000	-6.91	44.710273873	-0.655828600
1656771631.2081070	1.77900	2.451790	1351.940000000	-9.26	1334.306728072	44.980400000	-6.94	44.650649151	-0.854669100
1656771632.4265039	1.76900	2.456104	1352.245000000	-9.26	1334.607749976	45.075800000	-7.00	44.740195222	1.228776000
1656771634.2230699	1.78000	2.461856	1352.090000000	-9.26	1334.454771631	45.180600000	-6.90	44.853372363	-0.715407100
1656771635.4328389	1.78000	2.466170	1352.090000000	-9.26	1334.454771631	45.276000000	-6.92	44.946370384	-0.962288800
1656771637.2160830	1.77600	2.471922	1352.395000000	-9.26	1334.755793535	45.218800000	-6.89	44.891864331	1.036537000
1656771638.4238660	1.77100	2.476236	1352.550000000	-9.26	1334.908771879	45.257000000	-6.88	44.930924901	0.990679600
1656771640.2157280	1.77700	2.481988	1352.550000000	-9.26	1334.908771879	45.490600000	-6.94	45.157108880	-0.793443100
1656771641.4274969	1.77100	2.484864	1352.700000000	-9.26	1335.056815438	45.433400000	-6.86	45.107762019	-1.007611000
1656771643.1572380	1.77700	2.492054	1352.855000000	-9.26	1335.209793782	45.490600000	-6.91	45.160554588	1.510090000
1656771644.4185219	1.77900	2.494930	1352.855000000	-9.26	1335.209793782	45.504800000	-6.98	45.167740165	0.600269800
1656771646.1382840	1.77800	2.500682	1352.855000000	-9.27	1335.186979793	45.509600000	-6.85	45.184554014	1.300258000
1656771647.3447139	1.77800	2.504996	1353.005000000	-9.27	1335.335020822	45.533400000	-6.86	45.207614902	1.501687000
1656771649.1149950	1.77200	2.510748	1353.160000000	-9.26	1335.510815686	45.538200000	-6.91	45.207235592	-0.068330330
1656771650.3241229	1.77700	2.515062	1353.160000000	-9.26	1335.510815686	45.633600000	-6.96	45.297325573	0.751803300
1656771652.2130949	1.77700	2.522252	1353.160000000	-9.26	1335.510815686	45.690800000	-6.92	45.357573890	-0.980459900
1656771653.4254940	1.77700	2.525128	1353.160000000	-9.26	1335.510815686	45.643200000	-6.89	45.313769362	0.133884600
1656771655.2266960	1.77600	2.532318	1353.310000000	-9.27	1335.636037582	45.829200000	-6.93	45.494385721	1.100809000
1656771656.4274909	1.77800	2.535194	1353.465000000	-9.27	1335.789013313	45.824400000	-7.04	45.478529803	-0.344177600
1656771658.2200651	1.77600	2.540946	1353.465000000	-9.27	1335.789013313	45.943600000	-6.95	45.606206188	1.411499000
1656771659.4388220	1.77400	2.545260	1353.615000000	-9.26	1335.959881148	45.886400000	-6.94	45.550007275	0.269226800
1656771661.2187121	1.77300	2.551012	1353.770000000	-9.26	1336.112859493	45.919800000	-6.93	45.584323825	-1.209582000
1656771662.4288440	1.77800	2.555326	1353.770000000	-9.26	1336.112859493	46.000800000	-6.92	45.665313039	-0.128691200
1656771664.1538789	1.77500	2.561078	1353.770000000	-9.26	1336.112859493	46.091400000	-6.92	45.755833906	-0.236145700
1656771665.4135201	1.77100	2.565392	1353.770000000	-9.26	1336.112859493	46.110400000	-7.03	45.764145336	1.156513000
1656771667.1452539	1.77400	2.571144	1354.075000000	-9.27	1336.391046833	46.120000000	-6.91	45.785388137	0.268031900
1656771668.3596621	1.77300	2.575458	1354.075000000	-9.27	1336.391046833	46.158200000	-6.94	45.820398680	0.455203900
1656771670.1243091	1.77800	2.581210	1354.075000000	-9.27	1336.391046833	46.220200000	-7.01	45.874303910	-0.521922400
1656771671.3340890	1.77900	2.585524	1354.075000000	-9.26	1336.413881396	46.234400000	-6.92	45.897209378	0.246402000
1656771673.2226951	1.77600	2.591276	1354.225000000	-9.26	1336.561924955	46.396600000	-6.97	46.054114014	1.172785000
1656771674.4404430	1.77900	2.595590	1354.225000000	-9.27	1336.539087862	46.339400000	-6.92	46.001443606	0.526768200
1656771676.2366540	1.77700	2.601342	1354.380000000	-9.27	1336.692063593	46.329800000	-7.00	45.984858762	-1.130887000
1656771677.4464259	1.77800	2.605656	1354.225000000	-9.27	1336.539087862	46.387000000	-6.98	46.043405597	-0.465228300
1656771679.2246900	1.77900	2.611408	1354.530000000	-9.27	1336.840104622	46.496600000	-6.89	46.160425731	1.055284000
1656771680.4437981	1.77300	2.615722	1354.530000000	-9.27	1336.840104622	46.463400000	-6.98	46.119239693	0.431308100
1656771682.2270379	1.77200	2.621474	1354.835000000	-9.27	1337.141121382	46.563400000	-7.00	46.216719530	0.216490500
1656771683.4417980	1.77900	2.625788	1354.685000000	-9.27	1336.993080353	46.582600000	-6.97	46.238741017	-0.715201200
1656771685.1622050	1.78000	2.631540	1354.835000000	-9.27	1337.141121382	46.582600000	-6.97	46.238149143	-0.445575400
1656771686.3689859	1.78000	2.635854	1354.685000000	-9.27	1336.993080353	46.630200000	-6.99	46.283616690	0.267290300
1656771688.1389110	1.77500	2.641606	1355.145000000	-9.26	1337.469925451	46.763800000	-7.02	46.413237546	-1.141352000
1656771689.3476861	1.77600	2.645920	1354.990000000	-9.27	1337.294097113	46.792400000	-6.95	46.448179885	-0.765507500
1656771691.1309490	1.77700	2.651672	1354.990000000	-9.27	1337.294097113	46.797000000	-6.94	46.454523726	0.671958000
1656771692.3360760	1.77200	2.655986	1355.295000000	-9.26	1337.617969010	46.873400000	-7.01	46.523214725	1.043417000
1656771694.1309340	1.77800	2.661738	1355.145000000	-9.26	1337.469925451	46.897200000	-7.00	46.548034275	-0.536342700
1656771695.3400581	1.78000	2.666052	1355.145000000	-9.26	1337.469925451	46.992600000	-7.04	46.638515766	-0.557480500
1656771697.2266729	1.78200	2.671804	1355.145000000	-9.26	1337.469925451	47.007000000	-7.03	46.653410157	0.433450400
1656771698.4414330	1.77500	2.676118	1355.600000000	-9.27	1337.896130633	46.992600000	-6.96	46.646311089	-0.665881500
1656771700.2376430	1.77300	2.681870	1355.600000000	-9.26	1337.918990913	47.126200000	-7.04	46.770504168	0.692063100
1656771701.4504080	1.77900	2.686184	1355.450000000	-9.27	1337.748089603	47.126200000	-7.03	46.772317436	1.006709000
1656771703.2356460	1.77900	2.691936	1355.600000000	-9.27	1337.896130633	47.207200000	-6.97	46.858130595	0.503943900
1656771704.4407890	1.77600	2.696250	1355.755000000	-9.27	1338.049106363	47.192800000	-7.01	46.840228528	-0.914906000
1656771706.1708159	1.78200	2.702002	1355.600000000	-9.27	1337.896130633	47.212000000	-7.01	46.859285087	-0.794102900
1656771707.3819580	1.77900	2.704878	1355.755000000	-9.27	1338.049106363	47.283400000	-6.99	46.931961720	-1.227011000
1656771709.1568551	1.77800	2.712068	1355.755000000	-9.27	1338.049106363	47.269200000	-6.99	46.917867263	1.151608000
1656771710.3719721	1.77400	2.714944	1355.905000000	-9.27	1338.197147393	47.316800000	-6.99	46.965113471	-0.113405300
1656771712.1428890	1.77400	2.722134	1356.060000000	-9.27	1338.350123123	47.455200000	-7.08	47.093355167	-1.092734000
1656771713.3500280	1.77800	2.725010	1355.905000000	-9.27	1338.197147393	47.483800000	-7.11	47.118666209	-0.949846500
1656771715.1432559	1.77600	2.732200	1356.060000000	-9.27	1338.350123123	47.560000000	-6.96	47.209529913	1.324774000
1656771716.3516641	1.77700	2.735076	1356.060000000	-9.27	1338.350123123	47.517200000	-7.01	47.162204976	0.531176600
1656771718.1532140	1.77300	2.740828	1356.365000000	-9.27	1338.651139883	47.603000000	-7.02	47.246146526	1.434943000
1656771719.3626330	1.77900	2.745142	1356.365000000	-9.27	1338.651139883	47.607800000	-6.98	47.255162976	1.023188000
1656771721.1438820	1.77800	2.750894	1356.365000000	-9.27	1338.651139883	47.583800000	-7.06	47.222814791	-0.614709100
1656771722.3516581	1.77800	2.755208	1356.515000000	-9.27	1338.799180913	47.693600000	-7.00	47.337896218	-0.625668800
1656771724.2416179	1.77800	2.762398	1356.365000000	-9.27	1338.651139883	47.736400000	-6.94	47.387048879	-0.050489970
1656771725.4513900	1.77700	2.765274	1356.515000000	-9.27	1338.799180913	47.808000000	-7.05	47.446543918	1.194168000
1656771727.1817780	1.77400	2.771026	1356.515000000	-9.27	1338.799180913	47.774600000	-6.98	47.420727468	1.038227000
1656771728.4424150	1.77900	2.775340	1356.670000000	-9.27	1338.952156643	47.870000000	-7.01	47.511757374	1.533739000
1656771730.1767900	1.77800	2.781092	1356.670000000	-9.27	1338.952156643	47.917600000	-6.99	47.561447969	-0.932912000
1656771731.3869190	1.77800	2.785406	1356.820000000	-9.27	1339.100197673	47.922400000	-7.04	47.561309822	0.488369800
1656771733.1472280	1.77700	2.791158	1356.820000000	-9.27	1339.100197673	48.032200000	-7.10	47.664093313	-1.063852000
1656771734.3626239	1.77900	2.795472	1356.975000000	-9.27	1339.253173403	48.070200000	-7.00	47.711687497	1.189883000
1656771736.1468661	1.78100	2.801224	1356.820000000	-9.27	1339.100197673	48.065400000	-7.02	47.705080168	1.510173000
1656771737.3556440	1.78000	2.805538	1356.975000000	-9.27	1339.253173403	48.137000000	-6.99	47.779217258	-0.278707300
1656771739.1618249	1.77900	2.811290	1356.975000000	-9.27	1339.253173403	48.203800000	-7.00	47.844291094	0.059394810
1656771740.3759320	1.78000	2.815604	1357.125000000	-9.27	1339.401214433	48.189400000	-7.01	47.828767094	-0.754095300
1656771742.2509410	1.78000	2.821356	1357.125000000	-9.27	1339.401214433	48.251400000	-6.93	47.898889860	0.689796800
1656771743.4627120	1.77800	2.825670	1357.280000000	-9.27	1339.554190163	48.203800000	-7.04	47.840589503	-0.864475700
1656771745.2545750	1.77900	2.831422	1357.280000000	-9.28	1339.531286862	48.261000000	-7.09	47.892387781	0.237420500
1656771746.4696870	1.78000	2.835736	1357.280000000	-9.27	1339.554190163	48.346800000	-7.00	47.986224586	-0.737696300
1656771748.2568071	1.77700	2.841488	1357.430000000	-9.28	1339.679325360	48.485200000	-7.09	48.114875366	-0.189175600
1656771749.4617009	1.77700	2.845802	1357.430000000	-9.27	1339.702231193	48.470800000	-6.91	48.119132509	-1.014287000
1656771751.2605560	1.77800	2.851554	1357.585000000	-9.27	1339.855206923	48.489800000	-7.03	48.125677819	1.262024000
1656771752.4666941	1.78000	2.855868	1357.585000000	-9.27	1339.855206923	48.556600000	-7.08	48.186357017	-1.105505000
1656771754.1891129	1.78000	2.861620	1357.735000000	-9.27	1340.003247953	48.566200000	-7.00	48.203988278	0.620334100
1656771755.3895421	1.78200	2.865934	1357.585000000	-9.27	1339.855206923	48.642400000	-7.03	48.276508567	1.133316000
1656771757.1578240	1.77900	2.871686	1357.735000000	-9.27	1340.003247953	48.656800000	-7.07	48.287047985	-0.283569600
1656771758.3676009	1.77800	2.876000	1357.735000000	-9.27	1340.003247953	48.623400000	-7.05	48.255779024	-1.099081000
1656771760.0949941	1.77800	2.881752	1357.890000000	-9.28	1340.133310089	48.809400000	-6.91	48.454661030	1.351719000
1656771761.3111260	1.78500	2.884628	1357.735000000	-9.27	1340.003247953	48.818800000	-7.03	48.452207275	-1.109627000
1656771763.1648030	1.78300	2.891818	1357.735000000	-9.28	1339.980336974	48.838000000	-7.04	48.469383964	0.975024800
1656771764.3809330	1.78200	2.896132	1357.890000000	-9.27	1340.156223683	48.838000000	-7.01	48.472513194	0.872643200
1656771766.2130470	1.77800	2.901884	1357.890000000	-9.27	1340.156223683	49.000000000	-7.10	48.624476338	0.253818000
1656771767.4164670	1.77800	2.906198	1358.195000000	-9.27	1340.457240443	49.019200000	-7.08	48.645429702	-0.191029800
1656771769.1907351	1.78000	2.911950	1358.040000000	-9.27	1340.304264713	49.009600000	-7.13	48.630825205	-1.042427000
1656771770.3988750	1.77600	2.916264	1358.195000000	-9.27	1340.457240443	49.076400000	-7.15	48.695193393	-0.702139600
1656771772.1737781	1.78300	2.922016	1358.195000000	-9.27	1340.457240443	49.152600000	-7.10	48.775906850	0.495909300
1656771773.3878980	1.77900	2.926330	1358.195000000	-9.27	1340.457240443	49.138400000	-7.01	48.771293195	1.208138000
1656771775.1727791	1.77800	2.932082	1358.345000000	-9.27	1340.605281473	49.176600000	-7.05	48.804796512	-0.610507300
1656771776.3779161	1.78400	2.934958	1358.345000000	-9.27	1340.605281473	49.186000000	-7.00	48.819165746	-1.060308000
1656771778.1232691	1.78000	2.940710	1358.345000000	-9.28	1340.582360200	49.224200000	-7.04	48.853300898	0.444574700
1656771779.3755741	1.78400	2.945024	1358.345000000	-9.27	1340.605281473	49.286200000	-6.98	48.920503556	1.125613000
1656771781.1059539	1.77800	2.950776	1358.500000000	-9.27	1340.758257203	49.372000000	-7.09	48.994902085	-0.516442700
1656771782.3057549	1.78400	2.955090	1358.345000000	-9.27	1340.605281473	49.386400000	-6.98	49.019960087	-1.057836000
1656771784.1761169	1.77800	2.962280	1358.500000000	-9.27	1340.758257203	49.419800000	-7.09	49.041698314	-0.392219100
1656771785.3827939	1.77900	2.965156	1358.650000000	-9.28	1340.883371814	49.462600000	-7.09	49.084810092	1.459868000
1656771787.2216430	1.78300	2.972346	1358.500000000	-9.27	1340.758257203	49.543600000	-7.07	49.166470366	0.575096000
1656771788.4826410	1.78300	2.976660	1358.650000000	-9.27	1340.906298233	49.496000000	-7.08	49.118594113	0.112501700
1656771790.2140119	1.78500	2.982412	1358.650000000	-9.27	1340.906298233	49.605600000	-7.07	49.228637879	-0.428888500
1656771791.4217949	1.77900	2.985288	1358.805000000	-9.28	1341.036344929	49.639000000	-7.07	49.261144174	1.204345000
1656771793.1830969	1.78200	2.991040	1358.805000000	-9.28	1341.036344929	49.724800000	-7.07	49.346291057	1.343972000
1656771794.3994980	1.78500	2.995354	1358.805000000	-9.28	1341.036344929	49.667600000	-7.04	49.292722368	-1.062122000
1656771796.1817420	1.78400	2.999668	1358.805000000	-9.28	1341.036344929	49.691400000	-7.06	49.315065382	0.366788700
1656771797.3878839	1.78100	2.999668	1359.110000000	-9.28	1341.337356542	49.844000000	-7.04	49.467790948	0.793331600
1656771799.1258931	1.78000	2.999668	1359.110000000	-9.27	1341.360290723	49.834600000	-7.04	49.459101599	0.315165200
1656771800.3296821	1.77500	2.999668	1359.110000000	-9.28	1341.337356542	49.815400000	-7.03	49.441323553	-0.914824300
1656771802.1019559	1.77900	2.999668	1359.110000000	-9.28	1341.337356542	49.686800000	-7.11	49.304725911	0.202112000
1656771803.3070920	1.78200	2.999668	1358.805000000	-9.28	1341.036344929	49.744000000	-7.09	49.364060790	0.665777400
1656771805.1837370	1.78200	2.993916	1358.805000000	-9.28	1341.036344929	49.829800000	-7.09	49.449205459	0.764823000
1656771806.3948619	1.77900	2.989602	1358.955000000	-9.27	1341.207314993	49.772600000	-7.11	49.389866139	-0.464239900
1656771808.2296200	1.77900	2.983850	1358.955000000	-9.27	1341.207314993	49.739200000	-7.09	49.359297452	1.379981000
1656771809.4925890	1.78000	2.979536	1358.805000000	-9.28	1341.036344929	49.682000000	-7.10	49.300606511	1.012846000
1656771811.2106600	1.78100	2.973784	1358.650000000	-9.27	1340.906298233	49.682000000	-7.16	49.294793834	0.067016810
1656771812.4267750	1.78100	2.969470	1358.805000000	-9.28	1341.036344929	49.586600000	-7.12	49.204009886	1.240190000
1656771814.1880770	1.78100	2.963718	1358.650000000	-9.27	1340.906298233	49.510400000	-6.98	49.143040025	0.224854500
1656771815.3954990	1.78400	2.959404	1358.500000000	-9.27	1340.758257203	49.558000000	-7.03	49.185856435	-0.730115700
1656771817.1857221	1.78200	2.953652	1358.650000000	-9.27	1340.906298233	49.462600000	-7.03	49.090538967	0.233877000
1656771818.3964951	1.78400	2.949338	1358.650000000	-9.27	1340.906298233	49.376800000	-7.09	48.999665423	0.965343000
1656771820.1791010	1.78100	2.943586	1358.500000000	-9.27	1340.758257203	49.386400000	-7.09	49.008553851	1.217447000
1656771821.3954971	1.78500	2.939272	1358.345000000	-9.27	1340.605281473	49.357800000	-7.07	48.982720957	1.420768000
1656771823.1142631	1.78200	2.933520	1358.345000000	-9.27	1340.605281473	49.305200000	-7.11	48.926060281	-0.617470500
1656771824.3236840	1.78100	2.929206	1358.345000000	-9.28	1340.582360200	49.300400000	-7.09	48.923211821	0.700673700
1656771826.0873439	1.78000	2.923454	1358.345000000	-9.27	1340.605281473	49.209800000	-7.07	48.835211276	-1.004357000
1656771827.2957599	1.78100	2.919140	1358.195000000	-9.27	1340.457240443	49.186000000	-7.04	48.815388730	-0.472768900
1656771829.1890650	1.78100	2.913388	1358.195000000	-9.27	1340.457240443	49.076400000	-7.03	48.707872891	-0.332311200
1656771830.3968430	1.77400	2.909074	1358.040000000	-9.27	1340.304264713	49.071600000	-7.07	48.698695843	-1.054169000
1656771832.2096529	1.78200	2.903322	1358.040000000	-9.27	1340.304264713	49.071600000	-7.07	48.698695843	0.133925700
1656771833.4197879	1.78100	2.899008	1358.040000000	-9.27	1340.304264713	49.047800000	-7.11	48.670639597	-0.740416700
1656771835.1910629	1.78200	2.893256	1357.890000000	-9.27	1340.156223683	48.995400000	-7.13	48.616098024	1.124624000
1656771836.3994780	1.77800	2.888942	1357.890000000	-9.27	1340.156223683	48.952400000	-6.99	48.588556722	0.795475000
1656771838.1956899	1.77600	2.883190	1357.890000000	-9.27	1340.156223683	48.900000000	-6.97	48.538413337	0.632983100
1656771839.4018331	1.78500	2.878876	1357.890000000	-9.28	1340.133310089	48.866600000	-7.13	48.488295140	0.579834500
1656771841.1398349	1.78700	2.873124	1357.585000000	-9.27	1339.855206923	48.790200000	-7.03	48.423196806	-0.022019430
1656771842.3928511	1.78200	2.868810	1357.735000000	-9.27	1340.003247953	48.823600000	-7.07	48.451951060	-0.915359600
1656771844.1312101	1.77700	2.863058	1357.735000000	-9.27	1340.003247953	48.752200000	-7.06	48.382978352	1.261940000
1656771845.3346550	1.77900	2.860182	1357.735000000	-9.27	1340.003247953	48.728200000	-7.06	48.358533024	1.118607000
1656771847.0973020	1.78300	2.854430	1357.430000000	-9.27	1339.702231193	48.723600000	-7.06	48.353967921	0.915818800
1656771848.3087170	1.78500	2.850116	1357.280000000	-9.28	1339.531286862	48.547000000	-6.97	48.188023564	-0.557892000
1656771850.1920481	1.78500	2.842926	1357.430000000	-9.28	1339.679325360	48.523200000	-7.07	48.153837728	1.280687000
1656771851.4028330	1.77900	2.840050	1357.430000000	-9.28	1339.679325360	48.499400000	-7.02	48.135826709	-1.164425000
1656771853.2189851	1.78100	2.832860	1357.280000000	-9.27	1339.554190163	48.466000000	-7.02	48.102677090	0.373998800
1656771854.4343770	1.77700	2.828546	1357.125000000	-9.27	1339.401214433	48.389800000	-6.98	48.031370603	0.967239100
1656771856.2006669	1.78200	2.822794	1357.125000000	-9.27	1339.401214433	48.337200000	-6.99	47.977929253	-0.343600400
1656771857.4098151	1.78100	2.819918	1356.975000000	-9.27	1339.253173403	48.294400000	-7.01	47.932981310	-0.429259500
1656771859.2020061	1.78300	2.812728	1356.975000000	-9.27	1339.253173403	48.299200000	-7.04	47.935270674	-0.216615900
1656771860.4187679	1.78200	2.809852	1356.975000000	-9.27	1339.253173403	48.280000000	-7.06	47.913733206	-0.125353800
1656771862.1481490	1.77700	2.804100	1356.820000000	-9.27	1339.100197673	48.232400000	-7.04	47.868354870	-0.732505100
1656771863.4004631	1.78300	2.799786	1356.820000000	-9.27	1339.100197673	48.170400000	-7.08	47.803101783	0.982399500
1656771865.1408210	1.78500	2.794034	1356.670000000	-9.27	1338.952156643	48.084600000	-7.02	47.724136236	0.504191100
1656771866.3515911	1.78100	2.789720	1356.820000000	-9.27	1339.100197673	48.079800000	-6.93	47.728543518	1.354107000
1656771868.1072640	1.78200	2.783968	1356.670000000	-9.27	1338.952156643	48.046400000	-7.02	47.686222601	-0.327366800
1656771869.3230250	1.78000	2.779654	1356.820000000	-9.27	1339.100197673	47.946200000	-7.04	47.584930491	0.383639300
1656771871.2030110	1.78100	2.773902	1356.515000000	-9.27	1338.799180913	47.922400000	-7.01	47.563765230	0.848829200
1656771872.4247479	1.78100	2.769588	1356.515000000	-9.27	1338.799180913	47.903400000	-7.06	47.540606684	-0.045257220
1656771874.2289360	1.77900	2.763836	1356.515000000	-9.27	1338.799180913	47.817600000	-7.00	47.460971414	-0.929738800
1656771875.4337251	1.77800	2.759522	1356.515000000	-9.27	1338.799180913	47.827000000	-7.01	47.469690499	0.248420900
1656771877.2076371	1.78300	2.753770	1356.365000000	-9.27	1338.651139883	47.793600000	-7.01	47.436540027	1.588001000
1656771878.4233949	1.78500	2.749456	1356.060000000	-9.27	1338.350123123	47.727000000	-7.07	47.364313707	1.385625000
1656771880.2070031	1.78300	2.743704	1356.060000000	-9.27	1338.350123123	47.693600000	-6.99	47.339112870	-0.398481500
1656771881.4147739	1.78600	2.739390	1356.060000000	-9.27	1338.350123123	47.579200000	-6.91	47.234001284	-1.190589000
1656771883.1537781	1.77800	2.733638	1356.060000000	-9.27	1338.350123123	47.665000000	-6.97	47.312545434	-0.982271000
1656771884.4037991	1.78100	2.729324	1356.060000000	-9.27	1338.350123123	47.593400000	-7.06	47.232954450	1.166111000
1656771886.1418049	1.78100	2.723572	1355.905000000	-9.27	1338.197147393	47.412200000	-6.98	47.060408364	1.065707000
1656771887.3559279	1.78300	2.719258	1355.755000000	-9.27	1338.049106363	47.502800000	-6.97	47.152148372	-0.395061700
1656771889.1132469	1.78300	2.713506	1355.755000000	-9.27	1338.049106363	47.469400000	-6.97	47.118391780	-1.015316000
1656771890.3216610	1.78300	2.709192	1355.600000000	-9.26	1337.918990913	47.369400000	-6.99	47.017322517	-0.965129300
1656771892.2096250	1.78600	2.703440	1355.450000000	-9.27	1337.748089603	47.350200000	-6.99	46.998265222	0.899176600
1656771893.4307280	1.78400	2.699126	1355.600000000	-9.27	1337.896130633	47.235800000	-7.01	46.882907280	0.508763500
1656771895.2319260	1.77800	2.693374	1355.600000000	-9.27	1337.896130633	47.240600000	-7.00	46.888877544	-0.553730600
1656771896.4513130	1.77800	2.689060	1355.450000000	-9.27	1337.748089603	47.169000000	-6.92	46.825588493	-0.444957100
1656771898.2159619	1.78300	2.683308	1355.295000000	-9.27	1337.595113873	47.116600000	-7.02	46.763392799	0.975810000
1656771899.4233849	1.78400	2.678994	1355.295000000	-9.27	1337.595113873	47.097600000	-6.97	46.749939439	0.250975100
1656771901.2149680	1.78200	2.673242	1355.145000000	-9.26	1337.469925451	47.111800000	-7.02	46.758628782	1.398603000
1656771902.4267280	1.78600	2.668928	1355.145000000	-9.26	1337.469925451	47.064200000	-6.94	46.719172835	0.730956500
1656771904.2079780	1.78400	2.663176	1354.990000000	-9.27	1337.294097113	46.935400000	-7.05	46.580541278	-0.087077500
1656771905.4197500	1.78000	2.658862	1354.990000000	-9.27	1337.294097113	46.959200000	-6.97	46.612561067	0.281215300
1656771907.1437910	1.78300	2.653110	1354.835000000	-9.27	1337.141121382	46.892400000	-6.98	46.545062035	-0.847376100
1656771908.3449409	1.78400	2.650234	1354.835000000	-9.27	1337.141121382	46.878200000	-6.92	46.536314101	0.723086300
1656771910.1162300	1.78400	2.643044	1354.835000000	-9.27	1337.141121382	46.825800000	-6.99	46.477762874	0.911659200
1656771911.3196559	1.78500	2.640168	1354.530000000	-9.27	1336.840104622	46.687400000	-6.98	46.341580496	1.163103000
1656771913.1222081	1.78200	2.632978	1354.835000000	-9.27	1337.141121382	46.735200000	-7.03	46.383654655	-1.021990000
1656771914.3276320	1.78000	2.630102	1354.685000000	-9.26	1337.015925203	46.663600000	-6.92	46.323279194	-1.059194000
1656771916.2165921	1.78200	2.622912	1354.530000000	-9.27	1336.840104622	46.582600000	-7.01	46.233991833	-0.728919700
1656771917.4307201	1.77800	2.620036	1354.530000000	-9.27	1336.840104622	46.649200000	-6.95	46.306033311	-1.013091000
1656771919.2199450	1.78500	2.612846	1354.225000000	-9.27	1336.539087862	46.563400000	-6.95	46.220864484	-0.054033320
1656771920.4386921	1.78500	2.609970	1354.380000000	-9.27	1336.692063593	46.463400000	-6.98	46.119239693	0.536409100
1656771922.2199430	1.78600	2.602780	1354.075000000	-9.26	1336.413881396	46.482400000	-6.97	46.139280664	-0.834643900
1656771923.4267190	1.78600	2.599904	1354.075000000	-9.26	1336.413881396	46.444200000	-6.96	46.101952254	-0.590812100
1656771925.2145960	1.78100	2.592714	1354.225000000	-9.26	1336.561924955	46.410800000	-6.99	46.065847401	1.042099000
1656771926.4223790	1.78000	2.589838	1354.075000000	-9.26	1336.413881396	46.353600000	-6.88	46.019623936	0.633476300
1656771928.1507649	1.77500	2.584086	1354.075000000	-9.26	1336.413881396	46.258200000	-6.96	45.917322890	-1.053220000
1656771929.3608921	1.78200	2.579772	1353.920000000	-9.26	1336.260903052	46.310800000	-6.98	45.967770020	0.022849580
1656771931.1241889	1.78400	2.574020	1353.770000000	-9.26	1336.112859493	46.220200000	-6.89	45.886024126	-0.543759400
1656771932.3346050	1.77600	2.569706	1353.770000000	-9.26	1336.112859493	46.201000000	-6.89	45.867543430	0.498587000
1656771934.1221931	1.78400	2.563954	1353.615000000	-9.26	1335.959881148	46.110400000	-6.90	45.776438139	0.966702200
1656771935.3259959	1.78900	2.559640	1353.615000000	-9.27	1335.937054342	46.110400000	-7.02	45.764735726	-0.184602100
1656771937.2189391	1.78300	2.553888	1353.465000000	-9.27	1335.789013313	45.991200000	-7.00	45.648192893	-0.450601800
1656771938.4283540	1.78700	2.549574	1353.615000000	-9.27	1335.937054342	45.981800000	-6.92	45.647031843	-0.830813300
1656771940.2315450	1.78100	2.543822	1353.310000000	-9.26	1335.658859245	45.891200000	-6.97	45.552444727	1.270306000
1656771941.4346900	1.78400	2.539508	1353.160000000	-9.26	1335.510815686	45.881600000	-7.03	45.536475492	-0.740704700
1656771943.2295489	1.78000	2.533756	1353.160000000	-9.26	1335.510815686	45.838600000	-6.94	45.502557696	-0.962741700
1656771944.4406829	1.78200	2.529442	1353.160000000	-9.26	1335.510815686	45.757600000	-6.94	45.422151506	0.540240700
1656771946.2225640	1.78600	2.523690	1352.855000000	-9.27	1335.186979793	45.676600000	-6.95	45.340588073	-0.586815200
1656771947.4313390	1.78500	2.519376	1353.005000000	-9.27	1335.335020822	45.676600000	-7.01	45.334772025	-1.187827000
1656771949.1590879	1.78000	2.513624	1353.005000000	-9.27	1335.335020822	45.633600000	-6.88	45.305383875	0.908775100
1656771950.3784809	1.78300	2.509310	1352.855000000	-9.26	1335.209793782	45.633600000	-6.90	45.303091439	1.497154000
1656771952.1347959	1.78500	2.503558	1352.700000000	-9.26	1335.056815438	45.557400000	-6.91	45.226869937	-0.878278400
1656771953.3525500	1.78300	2.499244	1352.700000000	-9.26	1335.056815438	45.600200000	-6.96	45.264171698	0.942889800
1656771955.1341529	1.78300	2.493492	1352.550000000	-9.26	1334.908771879	45.528800000	-6.98	45.191562394	0.995870500
1656771956.3489151	1.78400	2.489178	1352.395000000	-9.26	1334.755793535	45.500000000	-6.94	45.166439969	0.304411600
1656771958.2338879	1.78200	2.483426	1352.395000000	-9.26	1334.755793535	45.409600000	-6.87	45.083564037	0.172447500
1656771959.4426651	1.78900	2.479112	1352.245000000	-9.26	1334.607749976	45.357000000	-6.92	45.026208316	-0.490402200
1656771961.2405109	1.78300	2.473360	1352.245000000	-9.26	1334.607749976	45.266400000	-6.89	44.939688923	0.994513100
1656771962.4482880	1.78000	2.469046	1352.245000000	-9.26	1334.607749976	45.247400000	-6.92	44.917978605	0.529652200
1656771964.2415061	1.78600	2.463294	1351.940000000	-9.26	1334.306728072	45.285600000	-6.92	44.955329041	-0.703334700
1656771965.4562671	1.78300	2.458980	1351.940000000	-9.26	1334.306728072	45.199600000	-6.95	44.867669865	-0.172942100
1656771967.1806691	1.78000	2.453228	1351.940000000	-9.26	1334.306728072	45.180600000	-6.89	44.854508186	-1.082433000
1656771968.4413280	1.78300	2.448914	1351.940000000	-9.26	1334.306728072	45.104400000	-7.00	44.768006739	0.545926800
1656771970.1706910	1.78700	2.443162	1351.785000000	-9.26	1334.153749728	45.028000000	-6.91	44.700743644	1.350606000
1656771971.3694940	1.78200	2.438848	1351.480000000	-9.26	1333.852727825	45.056600000	-6.91	44.729703364	1.329057000
1656771973.1461110	1.78300	2.433096	1351.480000000	-9.26	1333.852727825	44.989800000	-6.84	44.669589803	1.319745000
1656771974.3674951	1.78000	2.428782	1351.480000000	-9.26	1333.852727825	44.904000000	-6.92	44.576512076	-0.290779600
1656771976.1437600	1.78200	2.423030	1351.480000000	-9.26	1333.852727825	44.904000000	-6.93	44.575944953	1.101756000
1656771977.3499069	1.78500	2.420154	1351.175000000	-9.26	1333.551705921	44.846800000	-6.88	44.523680377	-0.120079800
1656771979.2425001	1.78200	2.412964	1351.175000000	-9.26	1333.551705921	44.842000000	-6.93	44.514397906	1.250983000
1656771980.4576130	1.78200	2.408650	1351.025000000	-9.26	1333.403662362	44.789600000	-6.95	44.460680763	0.301074600
1656771982.2464859	1.78500	2.402898	1350.870000000	-9.26	1333.250684018	44.742000000	-6.97	44.411159295	0.705865100
1656771983.4656019	1.78200	2.398584	1350.870000000	-9.26	1333.273449913	44.703800000	-6.96	44.374377278	0.387924100
1656771985.2504721	1.78300	2.392832	1350.870000000	-9.26	1333.273449913	44.622800000	-6.94	44.296235257	1.190213000
1656771986.4522669	1.78200	2.388518	1350.720000000	-9.26	1333.102640459	44.613200000	-6.89	44.290642869	-1.089602000
1656771988.1929770	1.78600	2.382766	1350.565000000	-9.26	1332.949662114	44.579800000	-6.88	44.259163249	1.135871000
1656771989.3947761	1.78500	2.378452	1350.410000000	-9.26	1332.796683770	44.527400000	-6.85	44.209925306	0.442431800
1656771991.1650510	1.78500	2.372700	1350.410000000	-9.26	1332.796683770	44.479600000	-6.92	44.155207254	-0.881656100
1656771992.3728380	1.77700	2.369824	1350.260000000	-9.26	1332.648640211	44.427200000	-6.86	44.108773827	0.808824600
1656771994.1517301	1.78600	2.364072	1350.260000000	-9.26	1332.648640211	44.384400000	-6.87	44.065724861	1.428681000
1656771995.3638511	1.78500	2.359758	1350.105000000	-9.26	1332.495661867	44.336600000	-6.88	44.017712447	-0.118761300
1656771997.1557200	1.78200	2.354006	1350.105000000	-9.26	1332.495661867	44.293800000	-6.98	43.965710195	1.256710000
1656771998.3877871	1.78300	2.349692	1350.260000000	-9.26	1332.648640211	44.265000000	-6.83	43.950500316	-0.436469500
1656772000.1467421	1.78200	2.343940	1349.955000000	-9.26	1332.347618308	44.169800000	-6.92	43.847666647	-0.537249700
1656772001.3568680	1.78200	2.339626	1349.800000000	-9.26	1332.194639963	44.136400000	-6.94	43.813394897	-0.948237800
1656772003.1580651	1.78500	2.333874	1349.650000000	-9.26	1332.046596404	44.079200000	-6.85	43.764920915	0.954467900
1656772004.3658431	1.78600	2.329560	1349.495000000	-9.26	1331.916360782	44.122000000	-6.89	43.802994286	0.560634400
1656772006.2544510	1.78200	2.322370	1349.495000000	-9.26	1331.916360782	43.969400000	-6.91	43.650391265	0.751308600
1656772007.4685681	1.78000	2.319494	1349.345000000	-9.26	1331.768314695	44.026600000	-6.89	43.708284036	0.838776100
1656772009.2534490	1.78200	2.313742	1349.345000000	-9.26	1331.768314695	44.026600000	-6.82	43.714890397	0.192841800
1656772010.4586000	1.78600	2.309428	1349.190000000	-9.26	1331.592596157	43.917000000	-6.81	43.607157993	-0.666911900
1656772012.1866291	1.77800	2.303676	1349.190000000	-9.26	1331.592596157	43.836000000	-6.87	43.521262313	-0.956148700
1656772013.4037449	1.78100	2.299362	1349.190000000	-9.26	1331.592596157	43.859800000	-6.88	43.544341794	-0.515329800
1656772015.1636889	1.78500	2.293610	1348.735000000	-9.26	1331.143530694	43.778800000	-6.88	43.463924380	-0.759121700
1656772016.3768239	1.78000	2.289296	1348.885000000	-9.26	1331.291574253	43.726200000	-6.85	43.413891701	0.920764600
1656772018.1680310	1.78600	2.283544	1348.580000000	-9.26	1330.990552350	43.673800000	-6.94	43.354180360	1.042222000
1656772019.3844321	1.78100	2.279230	1348.580000000	-9.26	1330.990552350	43.683400000	-6.85	43.371942919	-1.117745000
1656772021.1018550	1.77700	2.273478	1348.580000000	-9.26	1330.990552350	43.645200000	-6.83	43.335647573	-0.916225700
1656772022.3515179	1.78100	2.269164	1348.275000000	-9.26	1330.712252608	43.592800000	-6.95	43.272669645	-1.005510000
1656772024.1656799	1.78100	2.263412	1348.275000000	-9.26	1330.712252608	43.626200000	-6.91	43.309681265	1.212337000
1656772025.3784471	1.78000	2.259098	1348.125000000	-9.26	1330.564206521	43.530800000	-6.86	43.219343225	-0.357773500
1656772027.2614219	1.78200	2.253346	1347.970000000	-9.26	1330.411225565	43.473600000	-6.93	43.155995022	0.171376700
1656772028.4672041	1.77900	2.249032	1347.970000000	-9.26	1330.411225565	43.445000000	-6.90	43.130342720	0.394227600
1656772030.2045729	1.78000	2.243280	1347.820000000	-9.26	1330.263179478	43.402000000	-6.84	43.093090804	-1.164960000
1656772031.4592290	1.78000	2.238966	1347.665000000	-9.26	1330.087486640	43.344800000	-6.88	43.032502235	-0.858912700
1656772033.1995850	1.78300	2.233214	1347.515000000	-9.26	1329.962152434	43.325800000	-6.85	43.016892561	1.081610000
1656772034.4622140	1.78400	2.228900	1347.360000000	-9.26	1329.809171478	43.301800000	-6.89	42.989268460	0.694164600
1656772036.2015750	1.78200	2.223148	1347.360000000	-9.26	1329.809171478	43.187400000	-6.88	42.876236296	0.581606200
1656772037.4063649	1.78000	2.218834	1347.360000000	-9.26	1329.809171478	43.211200000	-6.90	42.898236054	1.570447000
1656772039.1700139	1.77700	2.213082	1347.210000000	-9.26	1329.638421177	43.144600000	-6.92	42.829943500	-0.940122000
1656772040.3827960	1.78000	2.208768	1347.210000000	-9.26	1329.638421177	43.120600000	-6.81	42.816376733	0.590050600
1656772042.1091759	1.78400	2.203016	1346.750000000	-9.26	1329.207117391	43.058600000	-6.85	42.751059941	-0.949145100
1656772043.3674650	1.77900	2.198702	1346.750000000	-9.26	1329.207117391	43.020600000	-6.86	42.712255449	0.262511100
1656772045.0928640	1.78200	2.192950	1346.600000000	-9.26	1329.059071304	42.925200000	-6.83	42.620219500	1.104229000
1656772046.3006411	1.78200	2.188636	1346.600000000	-9.26	1329.059071304	42.896600000	-6.83	42.592356999	0.675912700
1656772048.1676619	1.78300	2.182884	1346.445000000	-9.26	1328.906090347	42.825000000	-6.78	42.525515285	0.230539900
1656772049.3837800	1.78200	2.178570	1346.445000000	-9.26	1328.906090347	42.815600000	-6.83	42.511931489	-0.006651037
1656772051.2089250	1.77800	2.172818	1346.290000000	-9.26	1328.753109391	42.782200000	-6.86	42.475564150	-0.442403100
1656772052.4691911	1.78300	2.168504	1346.140000000	-9.26	1328.605063304	42.677200000	-6.83	42.373981522	-0.931839700
1656772054.1985791	1.78500	2.162752	1345.835000000	-9.26	1328.304036260	42.677200000	-6.87	42.370782370	1.106041000
1656772055.4156771	1.77700	2.158438	1345.835000000	-9.26	1328.304036260	42.643800000	-6.79	42.345055022	0.906303400
1656772057.1739960	1.77800	2.152686	1345.835000000	-9.26	1328.304036260	42.624800000	-6.82	42.323015182	1.026113000
1656772058.3877499	1.78300	2.148372	1345.530000000	-9.26	1328.003009217	42.529400000	-6.82	42.228819415	1.278546000
1656772060.1749990	1.78100	2.142620	1345.375000000	-9.26	1327.850028260	42.472200000	-6.86	42.168317359	-1.050502000
1656772061.3797851	1.78200	2.138306	1345.375000000	-9.26	1327.850028260	42.534200000	-6.83	42.231997527	-0.855245900
1656772063.1177890	1.78100	2.132554	1345.070000000	-9.25	1327.571654808	42.415000000	-6.83	42.114172734	1.112841000
1656772064.3229289	1.77700	2.129678	1345.070000000	-9.25	1327.571654808	42.338600000	-6.76	42.044606817	-0.134830200
1656772066.0931959	1.77600	2.123926	1345.070000000	-9.25	1327.571654808	42.329200000	-6.86	42.025810969	-0.995580000
1656772067.2976401	1.78200	2.119612	1344.765000000	-9.26	1327.247974173	42.319600000	-6.78	42.023649659	-0.300503400
1656772069.1766291	1.77800	2.113860	1344.765000000	-9.26	1327.247974173	42.233800000	-6.85	41.932678382	-1.195369000
1656772070.3834071	1.77800	2.109546	1344.615000000	-9.25	1327.122574014	42.210000000	-6.78	41.914816116	0.205531600
1656772072.2208641	1.77700	2.102356	1344.615000000	-9.25	1327.122574014	42.210000000	-6.77	41.915858876	0.254023800
1656772073.4801490	1.78000	2.098042	1344.310000000	-9.26	1326.798901043	42.109800000	-6.78	41.815316837	-0.649649000
1656772075.2059050	1.77900	2.092290	1344.155000000	-9.26	1326.645920087	42.100200000	-6.79	41.805263260	1.249994000
1656772076.4146791	1.77600	2.089414	1344.155000000	-9.26	1326.645920087	42.004800000	-6.80	41.708970255	0.288343800
1656772078.1776221	1.77800	2.083662	1344.005000000	-9.25	1326.520509653	41.995400000	-6.86	41.694928796	-0.938803800
1656772079.3923841	1.77900	2.079348	1343.850000000	-9.26	1326.344893043	41.957200000	-6.81	41.661184720	-1.132781000
1656772081.1809809	1.77700	2.073596	1343.700000000	-9.25	1326.219477473	41.909600000	-6.82	41.613399911	-1.040244000
1656772082.3963680	1.77600	2.069282	1343.545000000	-9.25	1326.066493906	41.876200000	-6.76	41.584901540	1.490397000
1656772084.1231151	1.77800	2.063530	1343.395000000	-9.25	1325.918445293	41.790400000	-6.83	41.493482173	1.086347000
1656772085.3807650	1.78100	2.059216	1343.395000000	-9.25	1325.918445293	41.757000000	-6.73	41.469611781	-0.804650800
1656772087.1048119	1.78000	2.053464	1343.090000000	-9.25	1325.617413113	41.718800000	-6.78	41.427051186	0.044150780
1656772088.3139400	1.77400	2.049150	1343.090000000	-9.25	1325.617413113	41.652000000	-6.82	41.357620523	-0.227617100
1656772090.1776159	1.77600	2.043398	1342.935000000	-9.26	1325.441811913	41.613800000	-6.82	41.319173091	1.109131000
1656772091.3867440	1.77300	2.039084	1342.785000000	-9.26	1325.293765826	41.547200000	-6.88	41.248374990	1.365643000
1656772093.2224951	1.77600	2.033332	1342.630000000	-9.25	1325.163397365	41.504200000	-6.73	41.218042379	0.613988400
1656772094.4801371	1.77900	2.029018	1342.480000000	-9.25	1325.015348752	41.513800000	-6.73	41.228085580	-0.996981500
1656772096.2165091	1.77600	2.023266	1342.325000000	-9.26	1324.839757826	41.428000000	-6.74	41.141349725	1.521996000
1656772097.4276421	1.77500	2.018952	1342.175000000	-9.25	1324.714316572	41.413600000	-6.74	41.127558424	1.379567000
1656772099.1849480	1.77900	2.013200	1341.865000000	-9.25	1324.408349438	41.418400000	-6.83	41.124125207	-1.032579000
1656772100.4023459	1.77600	2.008886	1342.020000000	-9.25	1324.561333005	41.318200000	-6.83	41.024637121	-1.169246000
1656772102.1849439	1.77500	2.003134	1341.715000000	-9.25	1324.260300825	41.304000000	-6.81	41.012593159	1.216786000
1656772103.3913729	1.77500	1.998820	1341.560000000	-9.25	1324.107317258	41.304000000	-6.78	41.015151975	0.418618200
1656772105.1287391	1.77300	1.993068	1341.560000000	-9.25	1324.107317258	41.127600000	-6.79	40.838967767	-0.936991000
1656772106.3787670	1.77000	1.988754	1341.255000000	-9.25	1323.806285077	41.084600000	-6.76	40.799314414	-1.012678000
1656772108.1929209	1.77400	1.983002	1341.105000000	-9.25	1323.658236464	41.137000000	-6.79	40.848301799	0.375564200
1656772109.4046929	1.77400	1.978688	1340.800000000	-9.25	1323.357204284	41.027400000	-6.80	40.738453849	-1.098421000
1656772111.2863121	1.77800	1.972936	1340.645000000	-9.25	1323.204220717	40.975000000	-6.74	40.691987812	0.366376700
1656772112.5064149	1.77200	1.968622	1340.645000000	-9.25	1323.204220717	40.960600000	-6.77	40.674659617	0.672697800
1656772114.2318151	1.77000	1.962870	1340.495000000	-9.25	1323.056172103	40.941600000	-6.81	40.652749953	0.578927700
1656772115.4336081	1.77700	1.958556	1340.340000000	-9.25	1322.903188536	40.932000000	-6.82	40.642200255	-1.187580000
1656772117.2075219	1.77400	1.952804	1340.190000000	-9.25	1322.777696819	40.836600000	-6.82	40.547475690	0.818835600
1656772118.4113150	1.77000	1.948490	1340.035000000	-9.25	1322.602156356	40.769800000	-6.77	40.485694935	0.916686500
1656772120.1885741	1.77100	1.942738	1339.885000000	-9.25	1322.454107743	40.727000000	-6.74	40.445200112	-0.540339200
1656772121.3987019	1.77000	1.938424	1339.730000000	-9.25	1322.301124176	40.684000000	-6.74	40.402497640	1.001311000
1656772123.1898820	1.77400	1.932672	1339.580000000	-9.25	1322.153075563	40.636400000	-6.71	40.357720114	1.048443000
1656772124.4056799	1.77400	1.928358	1339.425000000	-9.25	1322.000091996	40.574400000	-6.72	40.295648324	0.315988800
1656772126.1809440	1.77300	1.922606	1339.275000000	-9.25	1321.852043382	40.607800000	-6.71	40.329316250	-1.167103000
1656772127.4123061	1.77500	1.918292	1339.120000000	-9.25	1321.699059815	40.526600000	-6.73	40.247182605	1.012517000
1656772129.1327169	1.77300	1.912540	1338.970000000	-9.25	1321.551011202	40.498000000	-6.67	40.224221714	-0.266593900
1656772130.3843770	1.77200	1.909664	1338.815000000	-9.25	1321.420561389	40.407400000	-6.71	40.130290570	0.981699800
1656772132.1885669	1.77200	1.902474	1338.665000000	-9.25	1321.272510251	40.350200000	-6.76	40.069516673	0.783197600
1656772133.3953481	1.77200	1.898160	1338.360000000	-9.25	1320.948946842	40.369400000	-6.76	40.089080660	0.284305900
1656772135.2354400	1.76700	1.892408	1338.360000000	-9.25	1320.948946842	40.383600000	-6.75	40.103679338	-1.046917000
1656772136.4980719	1.77400	1.888094	1338.055000000	-9.25	1320.670435623	40.293000000	-6.74	40.014698350	-1.254947000
1656772138.2288160	1.77500	1.882342	1337.750000000	-9.25	1320.369398309	40.240600000	-6.64	39.971002160	0.939881500
1656772139.4900930	1.77600	1.878028	1337.750000000	-9.25	1320.346882481	40.216800000	-6.75	39.938035520	1.285756000
1656772141.2228310	1.77300	1.872276	1337.595000000	-9.25	1320.216412134	40.169000000	-6.79	39.887095193	-0.419288400
1656772142.4302509	1.76400	1.869400	1337.440000000	-9.25	1320.063425958	40.116600000	-6.65	39.846374531	-0.138991800
1656772144.1959090	1.76400	1.862210	1337.440000000	-9.25	1320.063425958	40.021200000	-6.72	39.746248884	1.154205000
1656772145.4053149	1.77200	1.859334	1336.985000000	-9.25	1319.614337506	40.011800000	-6.81	39.729509853	-0.630860300
1656772147.1885600	1.77300	1.853582	1336.680000000	-9.25	1319.313300192	39.930600000	-6.67	39.660171889	-0.949968800
1656772148.3993299	1.76800	1.849268	1336.680000000	-9.25	1319.313300192	39.930600000	-6.67	39.660657503	-0.605273400
1656772150.1237309	1.76900	1.843516	1336.525000000	-9.25	1319.160314016	39.840000000	-6.74	39.564337478	0.439135800
1656772151.3388441	1.76900	1.839202	1336.375000000	-9.25	1319.012262878	39.821000000	-6.73	39.546447482	-1.116467000
1656772153.1955380	1.77000	1.833450	1336.070000000	-9.25	1318.711225565	39.806600000	-6.71	39.533610790	-0.947867700
1656772154.4136291	1.77000	1.829136	1335.915000000	-9.25	1318.558239389	39.787600000	-6.69	39.516686124	0.709737900
1656772156.2424090	1.76900	1.823384	1335.610000000	-9.25	1318.257202075	39.687400000	-6.70	39.416199182	-0.899579300
1656772157.4465539	1.76900	1.819070	1335.460000000	-9.25	1318.109150937	39.673200000	-6.73	39.399666513	0.158975500
1656772159.2218249	1.77400	1.813318	1335.305000000	-9.25	1317.956164761	39.606400000	-6.72	39.334298616	-0.327037000
1656772160.4402151	1.77000	1.809004	1335.155000000	-9.25	1317.808113623	39.554000000	-6.73	39.281773700	-0.792579200
1656772162.1985271	1.77000	1.803252	1334.850000000	-9.25	1317.507076310	39.487200000	-6.74	39.214463969	-1.028541000
1656772163.4116409	1.76600	1.798938	1334.850000000	-9.25	1317.507076310	39.477600000	-6.74	39.204445011	-0.691385400
1656772165.2028661	1.76900	1.793186	1334.390000000	-9.25	1317.053052820	39.401400000	-6.67	39.135035050	1.105136000
1656772166.4266031	1.77000	1.788872	1334.390000000	-9.25	1317.053052820	39.430000000	-6.70	39.160558106	-0.448459200
1656772168.1938939	1.76800	1.783120	1334.240000000	-9.25	1316.905001682	39.267800000	-6.73	38.997061611	0.008140440
1656772169.4116571	1.76800	1.778806	1333.935000000	-9.25	1316.603964368	39.258400000	-6.77	38.984342444	-0.944943600
1656772171.1280720	1.76400	1.773054	1333.935000000	-9.25	1316.603964368	39.191600000	-6.73	38.921386985	-0.893769300
1656772172.3394790	1.77100	1.768740	1333.630000000	-9.25	1316.302927055	39.182000000	-6.77	38.908475782	0.575013200
1656772174.2028639	1.76800	1.762988	1333.325000000	-9.25	1316.001889741	39.134400000	-6.71	38.866499577	-1.095741000
1656772175.4056599	1.76600	1.758674	1333.170000000	-9.25	1315.848903565	39.053200000	-6.67	38.789188983	0.210763700
1656772177.2513771	1.76900	1.752922	1333.015000000	-9.24	1315.718339094	39.034000000	-6.82	38.758123488	-1.009093000
1656772178.5083799	1.76700	1.748608	1332.710000000	-9.24	1315.417296650	38.953000000	-6.83	38.676726878	-1.296849000
1656772180.2317891	1.76600	1.742856	1332.560000000	-9.24	1315.269242989	38.991200000	-6.66	38.728081886	0.052102400
1656772181.4545290	1.76700	1.738542	1332.255000000	-9.24	1314.968200545	38.938600000	-6.67	38.675363713	1.011940000
1656772183.2074921	1.76000	1.732790	1332.255000000	-9.24	1314.968200545	38.891000000	-6.67	38.627612531	-0.838435200
1656772184.4116440	1.76800	1.728476	1331.795000000	-9.24	1314.514169318	38.810000000	-6.69	38.545742605	-0.945270300
1656772186.2064941	1.76700	1.722724	1331.490000000	-9.24	1314.213126874	38.790800000	-6.71	38.525251742	1.331489000
1656772187.4164801	1.77100	1.718410	1331.340000000	-9.24	1314.065073213	38.705000000	-6.71	38.440039099	-0.926814800
1656772189.2018590	1.76600	1.712658	1331.185000000	-9.24	1313.912084430	38.676400000	-6.64	38.416813494	0.928922300
1656772190.4116330	1.76400	1.708344	1331.035000000	-9.24	1313.764030769	38.590600000	-6.60	38.334851048	-0.519450400
1656772192.1436570	1.76500	1.702592	1330.730000000	-9.24	1313.462988325	38.571600000	-6.73	38.306134966	1.046219000
1656772193.3524311	1.76900	1.698278	1330.425000000	-9.24	1313.161945881	38.581000000	-6.73	38.315470272	1.377221000
1656772195.1197190	1.76600	1.692526	1330.270000000	-9.24	1313.008957098	38.481000000	-6.76	38.213793440	-1.013626000
1656772196.3344800	1.76400	1.686774	1329.815000000	-9.23	1312.582214479	38.452200000	-6.71	38.188499113	-0.336761000
1656772198.5116739	1.76200	1.682460	1329.815000000	-9.24	1312.559860993	38.376000000	-6.65	38.117964669	-0.880132200
1656772199.7154629	1.76300	1.678146	1329.510000000	-9.24	1312.258818549	38.347400000	-6.76	38.080648514	-0.840166000
1656772201.1041040	1.76400	1.673832	1329.355000000	-9.24	1312.105829766	38.333000000	-6.65	38.074788863	-0.372318300
1656772202.3115361	1.77300	1.669518	1329.205000000	-9.24	1311.957776106	38.314000000	-6.70	38.052652247	-0.172736000
1656772204.2118261	1.76100	1.662328	1328.895000000	-9.24	1311.651798540	38.147200000	-6.67	37.889313807	-0.346113800
1656772205.4282241	1.76500	1.658014	1328.590000000	-9.24	1311.350756096	38.109000000	-6.64	37.853221743	1.076460000
1656772207.2134690	1.76500	1.652262	1328.440000000	-9.23	1311.225032808	38.023200000	-6.65	37.767075676	0.897651200
1656772208.4172540	1.76300	1.647948	1328.135000000	-9.24	1310.901659991	38.008800000	-6.67	37.751387189	0.469417400
1656772210.2054820	1.76600	1.642196	1327.830000000	-9.23	1310.622937666	37.994600000	-6.66	37.738207084	1.293750000
1656772211.4245889	1.76400	1.639320	1327.675000000	-9.24	1310.447628764	37.980200000	-6.59	37.728953242	-0.459089900
1656772213.1406529	1.76300	1.632130	1327.370000000	-9.23	1310.168898707	37.918200000	-6.67	37.661400773	-0.811984600
1656772214.3494301	1.76200	1.629254	1327.065000000	-9.24	1309.845543876	37.894400000	-6.59	37.644176312	-0.127290500
1656772216.1167159	1.76400	1.623502	1326.760000000	-9.24	1309.544501432	37.780000000	-6.70	37.522294772	-0.930274900
1656772217.3215051	1.76500	1.619188	1326.610000000	-9.23	1309.418747383	37.732200000	-6.62	37.480775561	-1.318190000
1656772219.2148099	1.76200	1.611998	1326.305000000	-9.23	1309.117699812	37.760800000	-6.70	37.503225739	-0.895829900
1656772220.4285719	1.76200	1.609122	1326.000000000	-9.23	1308.816652241	37.670200000	-6.71	37.411861982	0.989772300
1656772222.2407401	1.76200	1.601932	1325.695000000	-9.23	1308.515604670	37.613000000	-6.73	37.353670906	0.654859200
1656772223.4501581	1.76000	1.599056	1325.540000000	-9.23	1308.384880559	37.470000000	-6.62	37.220322702	-0.029229700
1656772225.2188039	1.76100	1.591866	1325.235000000	-9.23	1308.061565711	37.455800000	-6.75	37.196173510	0.217685500
1656772226.4252269	1.75900	1.588990	1324.930000000	-9.23	1307.760518140	37.427000000	-6.65	37.175345624	-1.116343000
1656772228.2177989	1.76100	1.583238	1324.780000000	-9.23	1307.612461958	37.427000000	-6.74	37.168493663	-0.825457600
1656772229.4371910	1.76200	1.578924	1324.320000000	-9.23	1307.158422998	37.350800000	-6.63	37.101014601	-0.083492480
1656772231.2124550	1.76600	1.573172	1324.015000000	-9.23	1306.857375427	37.303200000	-6.71	37.047378827	0.714064300
1656772232.4205940	1.76200	1.568858	1323.860000000	-9.23	1306.704384039	37.279200000	-6.64	37.029442496	-0.937690600
1656772234.1519680	1.76000	1.563106	1323.555000000	-9.23	1306.425570400	37.241200000	-6.62	36.993047286	0.769313100
1656772235.3673749	1.76100	1.558792	1323.250000000	-9.23	1306.102288897	37.145800000	-6.70	36.892420782	0.782291600
1656772237.1266840	1.75800	1.553040	1323.100000000	-9.23	1305.976459004	37.102800000	-6.74	36.846076822	1.040861000
1656772238.3417959	1.75900	1.548726	1322.640000000	-9.23	1305.500193756	37.055200000	-6.67	36.804696046	1.128866000
1656772240.2197909	1.76000	1.542974	1322.335000000	-9.23	1305.221359623	36.974200000	-6.67	36.724243629	0.596973300
1656772241.4292059	1.76100	1.538660	1322.030000000	-9.23	1304.920306928	36.974200000	-6.67	36.724243629	-1.121164000
1656772243.2503490	1.76100	1.532908	1321.725000000	-9.23	1304.619254234	36.959800000	-6.67	36.709491492	1.383073000
1656772244.4634681	1.76000	1.528594	1321.420000000	-9.23	1304.318201539	36.859600000	-6.58	36.617094175	-0.187774500
1656772246.2297580	1.76000	1.522842	1321.115000000	-9.23	1304.017148845	36.773800000	-6.64	36.527428498	0.834819300
1656772247.4371829	1.75900	1.518528	1320.810000000	-9.23	1303.716096151	36.740400000	-6.70	36.489337282	-0.153247400
1656772249.2244170	1.76000	1.512776	1320.505000000	-9.23	1303.415043456	36.721400000	-6.71	36.469568746	-1.079464000
1656772250.4285641	1.75800	1.508462	1320.200000000	-9.23	1303.113990762	36.649800000	-6.70	36.399356390	1.088574000
1656772252.2237720	1.76000	1.502710	1319.895000000	-9.23	1302.812938067	36.616400000	-6.56	36.376371686	1.092363000
1656772253.4351850	1.75800	1.498396	1319.590000000	-9.23	1302.511885373	36.525800000	-6.57	36.285928145	0.597838300
1656772255.1526029	1.75800	1.492644	1319.285000000	-9.23	1302.210832678	36.478200000	-6.67	36.231596734	0.603894900
1656772256.3623760	1.75900	1.488330	1318.980000000	-9.23	1301.909779984	36.497200000	-6.65	36.251354814	1.118072000
1656772258.1286709	1.75900	1.482578	1318.675000000	-9.23	1301.608727290	36.392400000	-6.59	36.151656862	0.551817900
1656772259.3348260	1.75400	1.478264	1318.370000000	-9.23	1301.307674595	36.320800000	-6.61	36.079656183	-0.587309900
1656772261.2237689	1.75900	1.472512	1317.910000000	-9.23	1300.853627909	36.306600000	-6.61	36.065112874	1.535015000
1656772262.4415171	1.76400	1.468198	1317.760000000	-9.22	1300.727691527	36.278000000	-6.62	36.035827433	1.336926000
1656772264.2513349	1.76400	1.462446	1317.150000000	-9.22	1300.125575897	36.163400000	-6.65	35.920241909	-0.371823900
1656772265.4614639	1.76100	1.458132	1316.995000000	-9.23	1299.950469825	36.163400000	-6.64	35.921117963	-0.548209800
1656772267.2357299	1.76300	1.452380	1316.540000000	-9.22	1299.523460268	36.063400000	-6.62	35.823095429	1.073124000
1656772268.4521320	1.75500	1.448066	1316.235000000	-9.22	1299.222402453	36.087200000	-6.59	35.848475823	0.509711400
1656772270.2307220	1.75500	1.442314	1315.775000000	-9.22	1298.768348044	35.953600000	-6.52	35.720919645	-0.726943200
1656772271.4445021	1.75800	1.438000	1315.620000000	-9.22	1298.615351450	35.944200000	-6.64	35.703386526	-1.122934000
1656772273.2303879	1.75900	1.432248	1315.165000000	-9.22	1298.166232415	35.944200000	-6.65	35.702515782	1.376273000
1656772274.4331789	1.75700	1.427934	1314.860000000	-9.22	1297.865174600	35.844000000	-6.58	35.608175987	1.028092000
1656772276.1625669	1.75500	1.422182	1314.400000000	-9.22	1297.411120191	35.777200000	-6.53	35.544809362	1.307922000
1656772277.3763299	1.75600	1.419306	1314.095000000	-9.22	1297.110062376	35.777200000	-6.66	35.535770411	1.447506000
1656772279.1396301	1.75600	1.412116	1313.790000000	-9.22	1296.809004561	35.720000000	-6.68	35.477653183	-0.044886420
1656772280.3507600	1.75900	1.409240	1313.485000000	-9.22	1296.507946747	35.610400000	-6.61	35.373972725	-0.921539200
1656772282.2327240	1.75700	1.402050	1313.030000000	-9.22	1296.058827712	35.524600000	-6.65	35.285306249	-0.107595800
1656772283.4385130	1.75300	1.399174	1312.725000000	-9.22	1295.779793481	35.486400000	-6.58	35.252502933	-0.748163700
1656772285.2616539	1.75800	1.391984	1312.115000000	-9.22	1295.177667618	35.429200000	-6.59	35.194828627	1.244226000
1656772286.4774079	1.76100	1.387670	1311.810000000	-9.22	1294.876604686	35.414800000	-6.65	35.176245862	1.507906000
1656772288.2417109	1.75900	1.381918	1311.350000000	-9.22	1294.422542560	35.419600000	-6.60	35.184866008	0.070807190
1656772289.4511249	1.75800	1.379042	1311.045000000	-9.22	1294.099484229	35.338600000	-6.60	35.104402814	0.407123200
1656772291.2403531	1.75700	1.371852	1310.585000000	-9.22	1293.667417501	35.267000000	-6.62	35.032002155	0.150240900
1656772292.4600999	1.75600	1.368976	1310.280000000	-9.22	1293.366354570	35.195400000	-6.63	34.960028949	1.119843000
1656772294.2347190	1.75200	1.361786	1309.825000000	-9.22	1292.917227901	35.157400000	-6.66	34.920152909	-0.960228500
1656772295.4481311	1.75500	1.358910	1309.520000000	-9.22	1292.616164969	35.143000000	-6.61	34.909675922	-1.251611000
1656772297.1695390	1.75800	1.353158	1309.060000000	-9.22	1292.162102843	35.147800000	-6.64	34.911896591	-0.577256500
1656772298.3746819	1.75100	1.348844	1308.755000000	-9.22	1291.861039911	35.043000000	-6.58	34.812445908	-0.956272900
1656772300.1426110	1.75800	1.343092	1308.145000000	-9.22	1291.258914048	34.947600000	-6.68	34.710493628	-0.936990500
1656772301.3474059	1.75300	1.338778	1307.840000000	-9.22	1290.957851116	34.904600000	-6.60	34.673279034	0.623711200
1656772303.2333651	1.75500	1.333026	1307.230000000	-9.22	1290.355725253	34.837800000	-6.54	34.611095901	-0.066023160
1656772304.4600959	1.75200	1.328712	1306.925000000	-9.21	1290.076574451	34.828400000	-6.52	34.603415663	0.915532900
1656772306.2726190	1.75900	1.322960	1306.465000000	-9.21	1289.622504613	34.733000000	-6.64	34.499880627	0.707018100
1656772307.5319009	1.75600	1.318646	1306.010000000	-9.22	1289.151473526	34.690000000	-6.59	34.460518585	-0.866204800
1656772309.2656381	1.75400	1.312894	1305.550000000	-9.21	1288.719300476	34.690000000	-6.68	34.454218711	0.902307000
1656772310.4803970	1.75500	1.308580	1305.245000000	-9.21	1288.418232431	34.604200000	-6.72	34.366464414	-0.906418500
1656772312.2383540	1.75600	1.302828	1304.635000000	-9.22	1287.794222604	34.547000000	-6.57	34.320123300	0.191276200
1656772313.4574580	1.75200	1.298514	1304.330000000	-9.21	1287.515028295	34.508800000	-6.57	34.282174167	0.388830500
1656772315.2373490	1.75600	1.292762	1303.875000000	-9.21	1287.065893998	34.451600000	-6.60	34.223281171	1.393041000
1656772316.4484580	1.75200	1.288448	1303.415000000	-9.21	1286.611824159	34.556600000	-6.29	34.348704604	-0.350728100
1656772318.1765139	1.75300	1.282696	1302.960000000	-9.21	1286.162689862	34.294200000	-6.72	34.058594157	1.371040000
1656772319.4311640	1.75300	1.278382	1302.345000000	-9.21	1285.555618229	34.308600000	-6.62	34.079574097	1.224203000
1656772321.1635430	1.75600	1.272630	1301.890000000	-9.21	1285.106483932	34.203600000	-6.63	33.974861663	0.564713700
1656772322.3796711	1.75700	1.268316	1301.430000000	-9.20	1284.674220006	34.165600000	-6.57	33.941228026	1.067024000
1656772324.1485839	1.75600	1.262564	1300.820000000	-9.21	1284.050278002	34.122600000	-6.59	33.896872052	-0.288101400
1656772325.3513751	1.75000	1.258250	1300.515000000	-9.20	1283.771000538	34.117800000	-6.64	33.888809698	-0.754837100
1656772327.2373440	1.74900	1.252498	1299.905000000	-9.21	1283.147073866	34.084400000	-6.50	33.865435223	1.463741000
1656772328.4411330	1.75400	1.245308	1299.145000000	-9.20	1282.418639150	33.912800000	-6.64	33.685185608	-0.801518000
1656772330.5439000	1.75200	1.240994	1298.840000000	-9.20	1282.117565994	33.860400000	-6.70	33.629431178	-0.922117500
1656772331.7503040	1.75200	1.236680	1298.380000000	-9.20	1281.663488448	33.836600000	-6.64	33.609497044	-0.597816500
1656772333.1329739	1.75700	1.232366	1297.920000000	-9.20	1281.209410902	33.774600000	-6.53	33.555619527	-0.077147520
1656772334.3433881	1.75500	1.228052	1297.310000000	-9.20	1280.607264590	33.779200000	-6.62	33.553708089	-0.225680500
1656772336.1415939	1.75400	1.222300	1296.855000000	-9.20	1280.158122669	33.698200000	-6.60	33.474874130	0.004308647
1656772337.3463809	1.75300	1.217986	1296.245000000	-9.20	1279.555976358	33.660000000	-6.58	33.438141055	-1.179094000
1656772339.1775000	1.75500	1.212234	1295.785000000	-9.20	1279.101898811	33.555200000	-6.59	33.333628847	1.508814000
1656772340.3856289	1.75300	1.207920	1295.330000000	-9.20	1278.652756890	33.483600000	-6.59	33.262099167	1.125650000
1656772342.1605401	1.75100	1.202168	1294.720000000	-9.20	1278.072290048	33.474200000	-6.53	33.256768488	-0.104670400
1656772343.3792911	1.75300	1.199292	1294.260000000	-9.20	1277.618204799	33.436000000	-6.60	33.214411791	1.162898000
1656772345.1475749	1.75400	1.192102	1293.650000000	-9.20	1277.016048273	33.412200000	-6.59	33.191171492	0.957307200
1656772346.3547151	1.74700	1.189226	1293.190000000	-9.20	1276.561963024	33.331000000	-6.62	33.108902482	1.182180000
1656772348.2423210	1.75100	1.182036	1292.430000000	-9.20	1275.811735222	33.207000000	-6.62	32.985728742	1.164875000
1656772349.4560840	1.74600	1.177722	1292.125000000	-9.20	1275.510656959	33.207000000	-6.63	32.984926477	1.481498000
1656772351.2612679	1.75400	1.171970	1291.360000000	-9.20	1274.755493447	33.116400000	-6.64	32.894531790	-0.911980900
1656772352.4790201	1.74800	1.167656	1290.905000000	-9.20	1274.306343908	33.073600000	-6.66	32.850414685	-0.157409200
1656772354.2436669	1.75300	1.161904	1290.140000000	-9.19	1273.572769209	32.992600000	-6.61	32.773155377	-0.549651500
1656772355.4530880	1.75000	1.157590	1289.680000000	-9.19	1273.118676262	32.902000000	-6.59	32.684742046	-0.956644200
1656772357.2456670	1.75400	1.151838	1289.070000000	-9.19	1272.516509529	32.868600000	-6.53	32.655102160	0.256908100
1656772358.4604311	1.75100	1.148962	1288.615000000	-9.19	1272.067352376	32.649200000	-7.21	32.390893563	1.008397000
1656772360.1954391	1.75600	1.141772	1287.850000000	-9.19	1271.312176063	32.825600000	-6.64	32.605680047	0.751227000
1656772361.4451070	1.75100	1.138896	1287.090000000	-9.19	1270.561935542	32.744600000	-6.55	32.530735407	0.080695210
1656772363.1804800	1.74900	1.133144	1286.325000000	-9.19	1269.806759229	32.644400000	-6.57	32.430018035	-0.125023800
1656772364.3926010	1.75600	1.128830	1286.020000000	-9.19	1269.505675863	32.601600000	-6.58	32.386717154	0.837417300
1656772366.1528931	1.75400	1.123078	1285.255000000	-9.19	1268.771992705	32.530000000	-6.57	32.316369322	-0.901021600
1656772367.3732960	1.74700	1.118764	1284.800000000	-9.19	1268.301342396	32.487000000	-6.70	32.265399425	1.021210000
1656772369.2456620	1.74800	1.111574	1283.885000000	-9.19	1267.419562542	32.410800000	-6.59	32.196395957	-1.038224000
1656772370.4594240	1.74900	1.108698	1283.120000000	-9.19	1266.664373436	32.320200000	-6.61	32.105227730	1.086965000
1656772372.2666020	1.75500	1.101508	1282.665000000	-9.19	1266.215208673	32.296400000	-6.62	32.081196427	0.281216500
1656772373.4750221	1.74900	1.098632	1282.055000000	-9.19	1265.613031739	32.282000000	-6.63	32.066112462	0.530599700
1656772375.2516379	1.75400	1.092880	1281.290000000	-9.19	1264.857842633	32.143800000	-6.55	31.933859409	-0.047605750
1656772376.4654009	1.74800	1.088566	1280.525000000	-9.19	1264.102653527	32.177200000	-6.62	31.962402186	0.881213200
1656772378.2502840	1.75000	1.082814	1279.915000000	-9.18	1263.521866592	32.058000000	-6.57	31.847469035	-0.389334700
1656772379.4564230	1.74800	1.078500	1279.155000000	-9.19	1262.750223363	31.967400000	-6.51	31.761276853	-0.908025700
1656772381.2433009	1.75300	1.072748	1278.695000000	-9.19	1262.296122724	31.953000000	-6.56	31.743541268	1.224244000
1656772382.4554300	1.75400	1.068434	1277.935000000	-9.18	1261.567226404	31.848200000	-6.51	31.642845445	1.319582000
1656772384.1754811	1.74800	1.062682	1276.865000000	-9.18	1260.510930949	31.800400000	-6.58	31.591179546	1.444953000
1656772385.3935871	1.74600	1.058368	1276.255000000	-9.18	1259.908743821	31.724200000	-6.63	31.512042778	-0.140227300
1656772387.1558781	1.75200	1.052616	1275.645000000	-9.18	1259.306556692	31.652600000	-6.57	31.444731374	0.316400800
1656772388.3656700	1.74900	1.048302	1274.730000000	-9.18	1258.403276000	31.647800000	-6.55	31.441098930	1.292143000
1656772390.1545351	1.74800	1.042550	1274.120000000	-9.18	1257.801088871	31.767000000	-6.83	31.541693393	-1.012225000
1656772391.3712881	1.74300	1.038236	1273.510000000	-9.17	1257.220170915	31.571600000	-6.64	31.359699168	1.415331000
1656772393.2526340	1.74700	1.032484	1272.440000000	-9.17	1256.163857589	31.390400000	-6.47	31.190597760	-1.017294000
1656772394.4600501	1.74900	1.028170	1271.830000000	-9.17	1255.561660273	31.342600000	-6.61	31.134507827	1.262435000
1656772396.2545950	1.75100	1.022418	1270.915000000	-9.17	1254.658364299	31.280600000	-6.64	31.070652289	0.350885100
1656772397.4680290	1.74600	1.018104	1270.305000000	-9.17	1254.056166982	31.271200000	-6.62	31.062450158	0.072084450
1656772399.2566121	1.74700	1.012352	1269.085000000	-9.17	1252.851772350	31.190000000	-6.53	30.987405499	-0.501692000
1656772400.4740870	1.74600	1.008038	1268.625000000	-9.17	1252.418830193	31.047000000	-6.45	30.850480742	0.020253800
1656772402.2496369	1.74600	1.002286	1267.710000000	-9.17	1251.515518947	30.946800000	-6.55	30.744677367	-1.156267000
1656772403.4630389	1.75200	0.997972	1266.945000000	-9.17	1250.760291512	30.927800000	-6.50	30.729113832	0.194490000
1656772405.1844471	1.74900	0.992220	1266.030000000	-9.16	1249.878097100	30.927800000	-6.50	30.728747138	-1.028541000
1656772406.3895910	1.74600	0.987906	1265.270000000	-9.17	1249.106688957	30.827600000	-6.53	30.627359466	0.315865200
1656772408.1678369	1.74700	0.982154	1264.355000000	-9.17	1248.203377711	30.789600000	-6.54	30.589239227	1.536621000
1656772409.3822539	1.74600	0.977840	1263.590000000	-9.16	1247.469226412	30.703600000	-6.56	30.502331351	0.702443800
1656772411.1585140	1.74600	0.972088	1262.370000000	-9.16	1246.264791068	30.551200000	-6.47	30.356739330	-1.174438000
1656772412.3716350	1.74600	0.967774	1261.760000000	-9.17	1245.641527784	30.584400000	-6.58	30.383179825	0.692887400
1656772414.2582459	1.74600	0.962022	1260.845000000	-9.16	1244.759246889	30.474800000	-6.50	30.278662669	-1.025863000
1656772415.4753599	1.74800	0.957708	1260.080000000	-9.16	1244.025010643	30.384200000	-6.43	30.193303177	-0.860355700
1656772417.2572479	1.75100	0.951956	1259.165000000	-9.16	1243.121668883	30.312600000	-6.52	30.116786807	1.198000000
1656772418.4623890	1.74700	0.947642	1258.400000000	-9.16	1242.345439990	30.207800000	-6.26	30.027450594	1.262767000
1656772420.2615931	1.74600	0.941890	1257.030000000	-9.16	1241.013871443	30.174400000	-6.43	29.984821301	0.063432410
1656772421.4703619	1.74500	0.937576	1255.960000000	-9.16	1239.957504576	30.131400000	-6.53	29.935681630	-1.189065000
1656772423.2542570	1.74700	0.931824	1255.350000000	-9.16	1239.355276737	30.040800000	-6.66	29.838080447	0.186167700
1656772424.4620290	1.74800	0.927510	1254.435000000	-9.16	1238.451934977	30.017000000	-6.70	29.811881122	0.611393400
1656772426.1864309	1.74800	0.921758	1253.215000000	-9.15	1237.268355247	29.917000000	-6.52	29.723742302	0.731408800
1656772427.4041841	1.75100	0.917444	1252.755000000	-9.16	1236.793340270	29.864400000	-6.69	29.661053220	-1.179546000
1656772429.1734681	1.74200	0.911692	1250.770000000	-9.15	1234.854466865	29.816800000	-6.53	29.623480258	0.948739200
1656772430.3782520	1.74600	0.908816	1250.465000000	-9.15	1234.553347865	29.840600000	-6.24	29.663804111	0.360114200
1656772432.1698320	1.74800	0.901626	1249.090000000	-9.15	1233.195844173	29.602200000	-6.53	29.409919046	-0.890391400
1656772433.3875771	1.74600	0.898750	1248.480000000	-9.15	1232.593606172	29.568800000	-6.55	29.376030647	-1.100769000
1656772435.2652249	1.74800	0.891560	1247.105000000	-9.14	1231.256863149	29.483000000	-6.47	29.294990546	-0.844945700
1656772436.4729960	1.74700	0.888684	1246.035000000	-9.14	1230.200460646	29.387600000	-6.61	29.192487612	-0.847994100
1656772438.2662139	1.74700	0.881494	1244.815000000	-9.14	1228.995964334	29.344800000	-6.64	29.148200181	-0.542112200
1656772439.4789770	1.74700	0.877180	1243.595000000	-9.14	1227.791468023	29.297000000	-6.50	29.108790406	1.006379000
1656772441.2765419	1.74100	0.871428	1242.225000000	-9.14	1226.459543883	29.144400000	-6.67	28.947375360	-1.137520000
1656772442.4843180	1.74800	0.868552	1241.610000000	-9.14	1225.831693286	29.111000000	-6.52	28.922602793	-0.099355370
1656772444.2622180	1.74400	0.861362	1240.390000000	-9.14	1224.647832427	29.020400000	-6.12	28.855006658	0.965466800
1656772445.4743500	1.74600	0.858486	1239.630000000	-9.14	1223.897477819	29.001400000	-6.54	28.812675791	1.050132000
1656772447.1963971	1.74700	0.852734	1238.410000000	-9.14	1222.692961211	28.901200000	-6.65	28.706521480	0.610940200
1656772448.4045401	1.74500	0.848420	1237.495000000	-9.14	1221.789573755	28.782000000	-6.56	28.593672237	1.286374000
1656772450.1758039	1.74000	0.842668	1235.510000000	-9.13	1219.850306887	28.772600000	-6.54	28.585364688	0.752957200
1656772451.3932030	1.74900	0.838354	1234.900000000	-9.13	1219.248038441	28.677200000	-6.52	28.491951156	-0.782894900
1656772453.1797969	1.74200	0.832602	1232.760000000	-9.13	1217.135162255	28.600800000	-6.71	28.405008921	-0.282786200
1656772454.3842239	1.74500	0.828288	1232.000000000	-9.13	1216.405264209	28.486400000	-6.65	28.294515573	1.580666000
1656772456.1199360	1.74000	0.822536	1230.625000000	-9.13	1215.047669048	28.438800000	-6.62	28.248957749	0.086380870
1656772457.3257489	1.74300	0.818222	1229.560000000	-9.13	1213.996149887	28.124000000	-7.10	27.908100671	0.673935200
1656772459.1904089	1.74500	0.812470	1228.640000000	-9.13	1213.087795306	28.209800000	-6.68	28.018407076	0.751721200
1656772460.3964920	1.74300	0.808156	1226.660000000	-9.13	1211.132858274	28.190800000	-6.47	28.011363453	-0.915812900
1656772462.1857610	1.74700	0.802404	1225.895000000	-9.12	1210.397896186	28.105000000	-6.66	27.915343498	-0.681662700
1656772463.4045041	1.74100	0.798090	1224.675000000	-9.12	1209.193318768	28.043000000	-6.56	27.859172152	-0.383647900
1656772465.2223220	1.73500	0.792338	1221.625000000	-9.11	1206.202145591	27.880800000	-6.72	27.689255092	1.351964000
1656772466.4261141	1.73900	0.788024	1222.080000000	-9.11	1206.651401276	28.124000000	-6.48	27.944324497	0.916852100
1656772468.2037110	1.74600	0.782272	1220.250000000	-9.11	1204.844504784	27.771200000	-6.59	27.587821662	-0.344589600
1656772469.4161341	1.74700	0.777958	1218.420000000	-9.11	1203.037608293	27.714000000	-6.56	27.532328817	0.733098200
1656772471.1907470	1.74400	0.772206	1217.350000000	-9.11	1201.981116902	27.642400000	-6.58	27.460535764	0.883972200
1656772472.4121420	1.74200	0.767892	1215.520000000	-9.11	1200.194376315	27.480200000	-6.62	27.297088655	0.677025400
1656772474.1927371	1.74800	0.762140	1214.910000000	-9.11	1199.571921580	27.413600000	-6.63	27.230270138	-0.690892200
1656772475.3981781	1.74300	0.757826	1213.385000000	-9.11	1198.086295006	27.327600000	-6.65	27.143852702	-0.786274900
1656772477.1359100	1.74400	0.752074	1211.705000000	-9.10	1196.447556450	27.251400000	-6.46	27.078585152	0.547327700
1656772478.3845680	1.73700	0.747760	1210.485000000	-9.11	1195.222859035	27.184600000	-6.58	27.005421548	0.786659100
1656772480.2861400	1.74200	0.742008	1207.890000000	-9.10	1192.680593841	26.974800000	-6.57	26.797651373	1.211473000
1656772481.4929221	1.74400	0.737694	1207.280000000	-9.10	1192.078274787	26.951000000	-6.51	26.777222185	0.814675200
1656772483.2904849	1.74200	0.731942	1205.145000000	-9.10	1189.990115865	26.860400000	-6.53	26.686248327	-1.104394000
1656772484.4982619	1.74300	0.727628	1204.075000000	-9.10	1188.933571280	26.788800000	-6.65	26.608350609	0.109370400
1656772486.2312839	1.74100	0.721876	1201.785000000	-9.10	1186.672368383	26.731600000	-6.56	26.556688513	1.321064000
1656772487.4833021	1.74400	0.717562	1200.565000000	-9.10	1185.467710071	26.650600000	-6.83	26.461581324	-0.428599400
1656772489.2176640	1.74200	0.711810	1198.275000000	-9.09	1183.226338195	26.517000000	-6.62	26.340306835	1.420933000
1656772490.4324391	1.74100	0.707496	1197.515000000	-9.09	1182.475882734	26.421600000	-6.70	26.241372778	0.636443000
1656772492.1937430	1.73900	0.701744	1195.075000000	-9.08	1180.086290851	26.293000000	-6.48	26.125022188	1.155523000
1656772493.4055040	1.74000	0.698868	1193.090000000	-9.08	1178.126186851	26.231000000	-6.60	26.057161014	1.336020000
1656772495.1953759	1.73900	0.691678	1191.870000000	-9.08	1176.921488171	26.088000000	-6.47	25.921947932	-1.346374000
1656772496.4111331	1.74300	0.687364	1190.190000000	-9.08	1175.282230283	26.073600000	-6.37	25.912524456	-0.905264600
1656772498.1398900	1.73800	0.683050	1187.750000000	-9.08	1172.872792595	25.944800000	-6.67	25.769090062	1.023229000
1656772499.3925359	1.74100	0.678736	1187.595000000	-9.08	1172.719734053	25.706400000	-6.64	25.534176178	1.105631000
1656772501.2881229	1.74100	0.671546	1184.240000000	-9.08	1169.406757232	25.720800000	-6.68	25.545980646	1.328602000
1656772502.5102279	1.74100	0.667232	1183.780000000	-9.08	1168.952518979	25.711200000	-6.62	25.539876196	-0.100220700
1656772504.2951059	1.74000	0.661480	1180.425000000	-9.07	1165.659039421	25.439400000	-6.43	25.279271905	-1.100853000
1656772505.5132110	1.74300	0.657166	1179.660000000	-9.07	1164.903608822	25.429800000	-6.62	25.260044227	1.231907000
1656772507.2904730	1.74000	0.651414	1176.305000000	-9.07	1161.609993059	25.291600000	-6.58	25.124898642	1.057137000
1656772508.5012419	1.74100	0.647100	1174.015000000	-9.07	1159.348600917	25.201000000	-6.67	25.030633893	1.074646000
1656772510.2222960	1.74000	0.642786	1172.795000000	-9.07	1158.143841784	25.062800000	-6.50	24.901791726	1.159271000
1656772511.4304280	1.74500	0.638472	1170.965000000	-9.06	1156.356018734	24.934000000	-6.63	24.767252590	1.122975000
1656772513.2003520	1.74000	0.632720	1168.525000000	-9.06	1153.946460220	24.981600000	-6.50	24.821113370	-0.975433100
1656772514.4001529	1.73400	0.628406	1166.845000000	-9.05	1152.306654983	24.981600000	-6.86	24.802547634	0.557709700
1656772516.1993520	1.74200	0.622654	1164.860000000	-9.05	1150.346387158	24.605000000	-6.61	24.441640613	0.212164600
1656772517.4144681	1.74000	0.618340	1163.030000000	-9.05	1148.539188106	24.566800000	-6.43	24.412452540	-0.410677400
1656772519.1897409	1.74400	0.612588	1160.740000000	-9.05	1146.296842281	24.447600000	-6.62	24.284400870	-1.001348000
1656772520.4031429	1.73800	0.608274	1159.370000000	-9.05	1144.943889273	24.338000000	-6.64	24.174649316	-0.380682100
1656772522.2974479	1.74100	0.602522	1155.705000000	-9.04	1141.343519470	24.171000000	-6.74	24.003755050	1.334292000
1656772523.5042269	1.74100	0.598208	1153.265000000	-9.04	1138.933840367	24.113800000	-6.78	23.945166853	1.043994000
1656772525.3020780	1.73900	0.591018	1149.905000000	-9.04	1135.634512175	23.894400000	-6.61	23.735758483	0.111883600
1656772526.5122049	1.73900	0.588142	1149.450000000	-9.04	1135.185158791	23.870600000	-6.34	23.724517871	-0.325471200
1656772528.2931001	1.73800	0.582390	1145.330000000	-9.03	1131.135119358	23.708400000	-6.79	23.542015178	1.330828000
1656772529.5052259	1.74200	0.578076	1142.585000000	-9.03	1128.424140074	23.579800000	-6.69	23.419245078	-1.065994000
1656772531.2232850	1.74000	0.572324	1141.665000000	-9.03	1127.515542282	23.455800000	-6.71	23.294942747	0.936543600
1656772532.4290681	1.73800	0.568010	1139.380000000	-9.02	1125.277582498	23.303200000	-6.49	23.154047560	0.012796260
1656772534.2083199	1.73700	0.562258	1134.190000000	-9.02	1120.170443590	23.131600000	-6.68	22.974660761	1.003576000
1656772535.4200931	1.74200	0.557944	1132.665000000	-9.02	1118.664293892	23.088600000	-6.58	22.936696019	0.252334600
1656772537.2063270	1.74100	0.552192	1132.205000000	-9.02	1118.209979884	23.007600000	-6.52	22.858702072	-1.109584000
1656772538.4101720	1.73900	0.547878	1129.155000000	-9.01	1115.216208630	22.859800000	-6.50	22.712673188	-0.071956070
1656772540.3020689	1.74000	0.542126	1125.495000000	-9.01	1111.619845193	22.683200000	-6.75	22.525970423	-1.083298000
1656772541.5121970	1.73900	0.537812	1123.660000000	-9.01	1109.807467158	22.673800000	-7.01	22.504117074	-1.078313000
1656772543.3084109	1.73500	0.532060	1119.235000000	-9.00	1105.455359886	22.354200000	-6.68	22.202535128	-0.268736300
1656772544.5201800	1.74100	0.527746	1116.340000000	-8.99	1102.614283729	22.230200000	-6.71	22.077747775	0.800664800
1656772546.3113930	1.74000	0.521994	1114.355000000	-8.99	1100.653689866	22.025200000	-6.88	21.866509206	-0.451591100
1656772547.5241721	1.74100	0.517680	1112.065000000	-8.99	1098.391846064	21.977600000	-6.82	21.821997956	1.114159000
1656772549.3020649	1.73500	0.511928	1107.030000000	-8.99	1093.436869949	21.815400000	-6.59	21.671348904	-0.606221800
1656772550.5188210	1.73900	0.507614	1105.505000000	-8.98	1091.948675501	21.629400000	-6.60	21.486056896	1.118402000
1656772552.2445641	1.74000	0.501862	1102.910000000	-8.98	1089.385496852	21.548400000	-6.70	21.401413887	-0.606962600
1656772553.5042119	1.73400	0.497548	1099.250000000	-8.98	1085.788343829	21.438800000	-6.74	21.290723326	-0.701191700
1656772555.2362380	1.74100	0.491796	1097.570000000	-8.98	1084.128917477	21.157400000	-6.61	21.016675181	1.102581000
1656772556.4490049	1.74300	0.487482	1094.365000000	-8.98	1080.963166609	21.014400000	-6.42	20.882617618	1.012599000
1656772558.2186389	1.74100	0.481730	1090.245000000	-8.97	1076.911428042	20.857000000	-6.52	20.722020077	-1.125243000
1656772559.4244180	1.73800	0.474540	1083.990000000	-8.96	1070.750619085	20.680600000	-6.59	20.544042197	-0.600370600
1656772561.5533881	1.73800	0.470226	1081.090000000	-8.96	1067.903672481	20.604200000	-6.73	20.462393732	-0.642232600
1656772562.8053939	1.73900	0.467350	1081.090000000	-8.96	1067.903672481	20.351600000	-6.42	20.223974071	-0.652902700
1656772564.2186360	1.73900	0.461598	1077.580000000	-8.95	1064.454049972	20.189400000	-6.62	20.054626341	-0.914164600
1656772565.4363899	1.73600	0.457284	1072.700000000	-8.95	1059.650966986	20.041600000	-6.49	19.913086289	0.938315600
1656772567.3153651	1.74100	0.451532	1069.950000000	-8.95	1056.934419806	19.698300000	-7.10	19.547082188	-0.227452600
1656772568.5228009	1.73800	0.447218	1065.525000000	-8.94	1052.580593984	19.803200000	-6.52	19.675275380	0.255919100
1656772570.2611661	1.73900	0.441466	1061.100000000	-8.93	1048.226612598	19.517020000	-6.34	19.397806356	-1.036864000
1656772571.5158181	1.73700	0.437152	1058.810000000	-8.93	1045.964395142	19.345360000	-6.32	19.227864647	0.832307300
1656772573.3140221	1.73700	0.431400	1053.165000000	-8.93	1040.405002454	19.006800000	-6.16	18.896985803	-0.055269090
1656772574.5217969	1.73900	0.427086	1047.825000000	-8.92	1035.146724493	18.863760000	-6.52	18.741903971	0.570440800
1656772576.2352281	1.73400	0.421334	1042.945000000	-8.92	1030.342703374	18.692100000	-5.87	18.593954521	-0.531810800
1656772577.4463739	1.73200	0.418458	1042.790000000	-8.92	1030.189576298	18.491820000	-6.61	18.369047703	-0.984578800
1656772579.2262540	1.73800	0.411268	1036.535000000	-8.90	1024.043781539	18.181880000	-6.58	18.062258197	0.642870500
1656772580.4340320	1.73600	0.408392	1032.415000000	-8.90	1019.973431401	18.053120000	-6.29	17.944303760	-0.631932000
1656772582.3209989	1.74100	0.401202	1029.820000000	-8.90	1017.426389798	17.881460000	-6.49	17.767009479	-1.032704000
1656772583.5237911	1.73700	0.396888	1024.020000000	-8.89	1011.712772400	17.771800000	-6.50	17.657419810	1.081279000
1656772585.3269830	1.73700	0.391136	1018.835000000	-8.89	1006.606574688	17.547680000	-6.68	17.428625566	1.009222000
1656772586.5311260	1.73500	0.386822	1013.340000000	-8.88	1001.193913912	17.223440000	-6.65	17.107422886	0.229757200
1656772588.3283319	1.73900	0.381070	1011.510000000	-8.88	999.385848640	17.128060000	-6.30	17.024622883	0.844174200
1656772589.5367579	1.73600	0.376756	1006.780000000	-8.87	994.745070940	16.870580000	-6.68	16.755913897	-1.046752000
1656772591.2681360	1.74000	0.371004	1002.505000000	-8.87	990.521173785	16.589240000	-6.28	16.489627925	-0.337955600
1656772592.5211489	1.73800	0.368128	997.015000000	-8.86	985.112890455	16.417580000	-6.74	16.304184631	-1.249054000
1656772594.2531769	1.73700	0.360938	990.605000000	-8.86	978.795387073	16.164860000	-6.90	16.047783446	-0.710256700
1656772595.4712851	1.73400	0.358062	985.265000000	-8.85	973.534927391	15.873980000	-6.74	15.764339248	1.655320000
1656772597.2355659	1.73500	0.352310	978.705000000	-8.84	967.084541982	15.359000000	-6.65	15.255541756	0.534020300
1656772598.4479859	1.73600	0.347996	978.095000000	-8.84	966.481784695	15.368540000	-6.44	15.271622477	-0.645979900
1656772600.2372150	1.73500	0.342244	967.715000000	-8.83	956.240594135	15.034760000	-6.31	14.943618547	-0.434903900
1656772601.4553189	1.74000	0.337930	968.785000000	-8.83	957.313478211	14.891700000	-6.18	14.805158409	1.094052000
1656772603.1737490	1.73700	0.332178	958.715000000	-8.82	947.378117575	14.553140000	-6.40	14.462387020	-0.946261000
1656772604.4244001	1.73300	0.327864	951.695000000	-8.81	940.456405626	14.228900000	-6.50	14.137490795	0.186167700
1656772606.2501791	1.73600	0.322112	946.965000000	-8.81	935.797452135	13.794980000	-6.11	13.716513454	0.228356400
1656772607.4682901	1.73900	0.317798	941.470000000	-8.80	930.397427314	13.713920000	-6.17	13.634531861	0.972100500
1656772609.3343160	1.73800	0.312046	935.980000000	-8.79	924.986978042	13.375360000	-6.31	13.294431831	-1.110781000
1656772610.5497079	1.73400	0.307732	929.420000000	-8.78	918.518892878	13.165540000	-6.32	13.085578202	-0.537620300
1656772612.2761061	1.73900	0.301980	924.685000000	-8.78	913.854211698	12.827000000	-5.99	12.756872689	1.378828000
1656772613.5377400	1.73400	0.297666	913.700000000	-8.77	903.027062139	12.445520000	-6.29	12.370646711	-0.235198400
1656772615.2624841	1.73600	0.291914	908.820000000	-8.76	898.218564601	11.963920000	-6.08	11.896666897	-0.493946300
1656772616.4682839	1.74000	0.287600	904.850000000	-8.75	894.309300865	11.921000000	-6.40	11.846660972	-1.146380000
1656772618.2415330	1.73400	0.281848	891.880000000	-8.74	881.532989494	11.463240000	-5.92	11.402063832	1.424312000
1656772619.4589441	1.73800	0.277534	886.235000000	-8.74	875.953479105	11.048400000	-6.18	10.984193354	1.441286000
1656772621.2425351	1.73700	0.271782	880.435000000	-8.72	870.248754535	10.724140000	-5.92	10.666908206	-0.486365200
1656772622.4493411	1.74200	0.267468	882.420000000	-8.73	872.196768386	10.423740000	-5.60	10.374027158	-0.405567700
1656772624.1763630	1.73500	0.261716	862.430000000	-8.71	852.493117238	10.123320000	-5.31	10.079876393	0.697131300
1656772625.4330130	1.73500	0.257402	861.670000000	-8.71	851.728211067	9.732280000	-5.84	9.681803208	1.291276000
1656772629.2747681	1.74000	0.244460	842.290000000	-8.68	832.638500443	8.564040000	-6.08	8.515898733	-1.025244000
1656772630.5553510	1.73300	0.240146	828.250000000	-8.68	818.772467829	8.215940000	-5.39	8.179558291	1.541442000
1656772631.7741010	1.73600	0.237270	823.825000000	-8.66	814.424111858	7.791560000	-4.61	7.766309521	-0.087406860
1656772633.1444459	1.73300	0.231518	820.010000000	-8.66	810.652645847	7.674740000	-5.65	7.637428689	-0.899579600
1656772634.3522210	1.74100	0.227204	814.670000000	-8.65	805.399267117	7.054840000	-5.57	7.021481748	0.549304800
1656772636.2481649	1.74000	0.221452	803.225000000	-8.64	794.109797667	6.666220000	-5.18	6.638952955	-1.074647000
1656772637.4669161	1.73600	0.217138	791.020000000	-8.62	782.080596529	6.237060000	-4.81	6.215131065	-1.073244000
1656772639.2521579	1.73800	0.211386	782.630000000	-8.62	773.797695149	5.624340000	-3.72	5.612489693	0.925215400
1656772640.4682701	1.74100	0.207072	776.830000000	-8.60	768.087507872	5.281000000	-4.66	5.263527871	1.343435000
1656772642.2501640	1.73800	0.201320	761.265000000	-8.59	752.721513588	4.754080000	-4.91	4.736648500	0.048888800
1656772643.4662709	1.73500	0.197006	749.670000000	-8.58	741.280082056	4.205720000	-3.59	4.197448604	-0.944119300
1656772645.1876791	1.73400	0.191254	733.645000000	-8.56	725.468775309	3.347420000	-3.72	3.340367091	1.039421000
1656772648.4180739	1.73800	0.181188	717.930000000	-8.54	709.973623292	2.275720000	-2.95	2.272700186	-0.650349300
1656772649.6497829	1.74200	0.176874	714.270000000	-8.53	706.365285884	1.853714000	1.61	1.852984020	0.467687400
1656772653.1703870	1.74100	0.165370	684.665000000	-8.50	677.141013132	0.362398000	48.05	0.242237663	0.293410900
1656772656.5802939	1.73900	0.153866	652.015000000	-8.47	644.910254063	1.419940000	158.38	-1.320062543	1.569006000
1656772657.7970669	1.73800	0.149552	637.210000000	-8.45	630.296018904	1.723478000	163.61	-1.653424458	1.334289000
1656772659.0533440	1.73700	0.145238	632.175000000	-8.44	625.335088406	2.348280000	165.21	-2.270476687	-0.224279800
1656772660.8858089	1.74400	0.139486	623.020000000	-8.43	616.288710287	3.200780000	167.75	-3.127949186	0.610198600
1656772662.0982220	1.73600	0.135172	597.995000000	-8.41	591.570757511	3.857040000	167.79	-3.769789884	1.070981000
1656772666.0151260	1.73700	0.122230	558.170000000	-8.35	552.250254401	5.890760000	169.19	-5.786187135	0.629644900
1656772667.2617960	1.73400	0.117916	545.505000000	-8.34	539.736158229	6.565480000	170.17	-6.469011568	-0.683761500
1656772669.1796930	1.73700	0.112164	529.330000000	-8.32	523.764327230	7.633000000	170.81	-7.535109080	-0.545695700
1656772670.4004409	1.74100	0.107850	519.870000000	-8.30	514.419531479	8.428140000	170.34	-8.308636195	-1.018612000
1656772672.2591219	1.73800	0.102098	489.046500000	-8.28	483.948737286	9.493260000	170.60	-9.365731911	0.488781800
1656772675.4948461	1.73600	0.090594	447.542500000	-8.23	442.931208937	11.421520000	171.27	-11.289196566	1.097265000
1656772676.7002771	1.73800	0.086280	444.338500000	-8.23	439.766881595	12.247640000	171.40	-12.109996125	-0.313399700
1656772678.1055281	1.73500	0.081966	418.246000000	-8.18	413.992824439	13.092840000	171.54	-12.950374357	1.212378000
1656772679.3641701	1.74400	0.077652	416.262000000	-8.18	412.028999887	14.101340000	171.37	-13.941757761	0.618026100
1656772681.1603811	1.73900	0.071900	373.690000000	-8.14	369.928784532	15.463900000	171.34	-15.287681146	-0.618376300
1656772682.3771350	1.73600	0.067586	349.123500000	-8.11	345.635371203	16.127900000	171.65	-15.956853428	-0.715571600
1656772684.1617291	1.73800	0.061834	332.339000000	-8.08	329.038167273	17.457080000	171.64	-17.271671000	1.414013000
1656772685.3651619	1.73900	0.057520	308.534000000	-8.04	305.501316348	18.506120000	171.61	-18.308158310	0.272481700
1656772689.2930329	1.73800	0.044578	249.635000000	-7.98	247.217681692	21.388600000	171.90	-21.175220005	-1.182018000
1656772692.6092000	1.73300	0.033074	182.916000000	-7.88	181.189668998	22.855000000	172.07	-22.636665977	-0.578409600
1656772693.8658490	1.74100	0.030198	165.826000000	-7.88	164.260961596	22.862200000	172.11	-22.645773538	-0.146531700
1656772695.0722721	1.73900	0.025884	138.092500000	-7.82	136.806983819	24.178200000	172.31	-23.960642092	-0.104217200
1656772696.5662899	1.74500	0.020132	103.684000000	-7.78	102.730584349	22.821600000	172.31	-22.616248917	0.650244000
1656772697.7774141	1.74300	0.015818	79.728000000	-7.78	78.993739234	22.738200000	172.37	-22.536774105	-0.911074700
1656772701.1430840	1.74600	0.005752	11.139000000	-7.64	11.040015308	6.837880000	172.03	-6.771864667	-1.148357000
1656772704.5061140	1.74000	0.000000	67.196000000	-7.70	66.589478374	14.348100000	172.51	-14.225546057	-0.631560900
1656772705.7099040	1.74300	0.000000	73.433000000	-7.75	72.762946591	17.852860000	172.33	-17.692967977	0.668209200
1656772706.9725361	1.73600	0.000000	73.748000000	-7.76	73.072988906	19.242840000	172.44	-19.075574135	-0.576515400
1656772708.9721999	1.73400	0.000000	74.759000000	-7.75	74.076847251	18.301080000	172.31	-18.136405016	0.983347100
1656772711.2794240	1.73500	0.000000	69.733000000	-7.72	69.101619641	16.598780000	172.45	-16.454954295	1.192932000
1656772712.4941621	1.72800	0.000000	65.756000000	-7.72	65.160628413	17.397480000	172.30	-17.240447619	1.104970000
1656772714.3728001	1.73300	0.000000	69.504000000	-7.71	68.875669913	16.000340000	172.47	-15.862359182	-0.372607300
1656772715.5799339	1.73400	0.000000	72.022000000	-7.71	71.370906688	17.356940000	172.41	-17.204869049	-1.160924000
1656772717.3123050	1.73200	0.000000	69.313500000	-7.73	68.682990873	17.976840000	172.45	-17.821073631	1.533450000
1656772718.5699501	1.73100	0.000000	65.107500000	-7.70	64.520743144	16.687000000	172.37	-16.539410529	-0.887012600
1656772720.3023341	1.72800	0.000000	65.851500000	-7.73	65.252482899	16.515320000	172.18	-16.361812665	0.775328400
1656772721.5101161	1.73400	0.000000	66.595500000	-7.72	65.991590673	16.632160000	172.24	-16.479926821	1.361400000
1656772723.2813921	1.72800	0.000000	66.958000000	-7.73	66.349860887	17.726500000	172.36	-17.568976690	-1.187951000
1656772724.4851811	1.73300	0.000000	67.997500000	-7.73	67.379919736	16.656000000	172.26	-16.504254150	-0.647629800
1656772726.2820351	1.73300	0.000000	68.283500000	-7.72	67.664283348	17.454700000	172.34	-17.298861729	0.614648500
1656772727.4928050	1.73100	0.000000	68.855500000	-7.75	68.227214862	17.428480000	172.39	-17.275058208	0.305441700
