------------------------------------------------------------------------------------------------------------------
time (s)	 T (K)	 R1 (Ohm)	 Theta1 (deg.)	 X1 (Ohm)	 R2 (Ohm)	 Theta2 (deg.)	 X2 (Ohm)	 Vgate (V) 	 Ileak (nA)
------------------------------------------------------------------------------------------------------------------

1656004854.4336510	9.98900	2703.570000000	-10.72	2656.369542684	0.538822000	-3.98	0.537519932	 -154.000	 -1.220
1656004855.9220281	9.98900	2703.570000000	-10.72	2656.369542684	0.538822000	-3.98	0.537519932	 -154.000	 -0.576
1656004857.1145029	9.98800	2703.570000000	-10.72	2656.369542684	0.538822000	-3.98	0.537519932	 -154.000	 0.560
1656004858.9376459	9.98800	2703.570000000	-10.72	2656.369542684	0.538822000	-3.98	0.537523849	 -154.000	 -1.474
1656004860.1823299	9.98700	2703.570000000	-10.72	2656.369542684	0.538822000	-3.98	0.537523849	 -154.000	 -1.579
1656004862.0034759	9.98500	2703.570000000	-10.72	2656.369542684	0.538822000	-3.98	0.537523849	 -154.000	 -1.400
1656004863.1962969	9.98300	2703.570000000	-10.72	2656.369542684	0.538822000	-3.98	0.537523849	 -154.000	 -1.020
1656004865.1151831	9.98100	2703.570000000	-10.72	2656.369542684	0.538883000	-3.98	0.537584702	 -154.000	 -1.643
1656004866.3080060	9.97800	2703.875000000	-10.72	2656.669217821	0.538883000	-3.98	0.537584702	 -154.000	 -0.658
1656004868.1959729	9.97500	2703.875000000	-10.72	2656.669217821	0.538822000	-3.98	0.537519932	 -154.000	 -0.783
1656004869.3971260	9.97200	2703.875000000	-10.72	2656.669217821	0.538883000	-3.98	0.537580784	 -154.000	 0.372
1656004871.2861021	9.96800	2703.875000000	-10.72	2656.669217821	0.538883000	-3.98	0.537584702	 -154.000	 -1.548
1656004872.4925220	9.96500	2703.875000000	-10.72	2656.669217821	0.538944000	-3.98	0.537641637	 -154.000	 -0.015
1656004873.8123569	9.96300	2703.875000000	-10.72	2656.669217821	0.538944000	-3.98	0.537645555	 -154.000	 -1.459
1656004875.0048261	9.95900	2703.875000000	-10.72	2656.669217821	0.538944000	-3.98	0.537645555	 -154.000	 0.465
1656004876.9356799	9.95600	2704.180000000	-10.72	2656.968892958	0.538944000	-3.98	0.537641637	 -154.000	 -1.636
1656004878.1787210	9.95200	2704.180000000	-10.72	2656.968892958	0.538944000	-3.97	0.537649468	 -154.000	 0.217
1656004880.0706611	9.94800	2704.180000000	-10.72	2656.968892958	0.538944000	-3.97	0.537649468	 -154.000	 0.427
1656004881.2910700	9.94400	2704.180000000	-10.72	2656.968892958	0.538944000	-3.98	0.537645555	 -154.000	 -0.773
1656004883.0956089	9.94100	2704.180000000	-10.72	2656.968892958	0.539005000	-3.98	0.537702490	 -154.000	 -1.813
1656004884.2910740	9.93600	2704.180000000	-10.72	2656.968892958	0.539005000	-3.98	0.537706408	 -154.000	 0.173
1656004886.0912769	9.93200	2704.485000000	-10.72	2657.268568096	0.539005000	-3.98	0.537706408	 -154.000	 0.780
1656004887.2910790	9.92800	2704.485000000	-10.72	2657.268568096	0.539005000	-3.98	0.537702490	 -154.000	 0.225
1656004889.2013481	9.92400	2704.485000000	-10.72	2657.268568096	0.539005000	-3.98	0.537702490	 -154.000	 -0.727
1656004890.3938119	9.92100	2704.485000000	-10.72	2657.268568096	0.539066000	-3.98	0.537767261	 -154.000	 0.180
1656004891.5916221	9.91700	2704.485000000	-10.72	2657.268568096	0.539066000	-3.97	0.537771175	 -154.000	 -1.826
1656004892.7944131	9.90900	2704.485000000	-10.72	2657.268568096	0.539066000	-3.98	0.537767261	 -154.000	 -1.329
1656004895.1541250	9.90500	2704.790000000	-10.72	2657.568243233	0.539066000	-3.98	0.537767261	 -154.000	 -1.668
1656004896.3928249	9.90100	2704.790000000	-10.72	2657.568243233	0.539066000	-3.98	0.537767261	 -154.000	 -0.601
1656004897.5986099	9.89700	2704.790000000	-10.72	2657.568243233	0.539127000	-3.98	0.537828114	 -154.000	 -1.557
1656004898.7947891	9.89000	2704.790000000	-10.72	2657.568243233	0.539127000	-3.98	0.537828114	 -154.000	 -1.653
1656004901.1072600	9.88600	2704.790000000	-10.72	2657.568243233	0.539127000	-3.98	0.537828114	 -154.000	 -0.168
1656004902.3024349	9.88100	2705.095000000	-10.72	2657.867918370	0.539127000	-3.98	0.537828114	 -154.000	 0.047
1656004904.1036291	9.87500	2705.095000000	-10.72	2657.867918370	0.539127000	-3.98	0.537828114	 -154.000	 0.504
1656004905.2970920	9.87100	2705.095000000	-10.72	2657.867918370	0.539188000	-3.98	0.537888967	 -154.000	 -1.374
1656004907.1066301	9.86600	2705.400000000	-10.72	2658.167593507	0.539188000	-3.98	0.537888967	 -154.000	 -0.018
1656004908.2960999	9.86000	2705.400000000	-10.72	2658.167593507	0.539249000	-3.98	0.537949820	 -154.000	 0.784
1656004910.2109959	9.85400	2705.400000000	-10.72	2658.167593507	0.539249000	-3.98	0.537949820	 -154.000	 0.826
1656004911.4028201	9.85000	2705.400000000	-10.72	2658.167593507	0.539249000	-3.98	0.537945900	 -154.000	 -0.786
1656004912.5960021	9.84700	2705.400000000	-10.72	2658.167593507	0.539249000	-3.98	0.537945900	 -154.000	 0.294
1656004913.8004329	9.83800	2705.710000000	-10.72	2658.472181351	0.539249000	-3.98	0.537949820	 -154.000	 0.338
1656004916.1624789	9.83200	2706.015000000	-10.72	2658.771856488	0.539310000	-3.98	0.538006753	 -154.000	 -1.789
1656004917.4078150	9.82800	2706.015000000	-10.72	2658.771856488	0.539310000	-3.98	0.538010673	 -154.000	 0.485
1656004918.5990169	9.82400	2705.710000000	-10.72	2658.472181351	0.539310000	-3.98	0.538010673	 -154.000	 -0.652
1656004919.8034289	9.81500	2706.015000000	-10.72	2658.771856488	0.539310000	-3.98	0.538010673	 -154.000	 -1.696
1656004922.1142721	9.80900	2706.015000000	-10.72	2658.771856488	0.539371000	-3.98	0.538067605	 -154.000	 0.801
1656004923.3041029	9.80300	2706.015000000	-10.72	2658.771856488	0.539371000	-3.98	0.538067605	 -154.000	 0.717
1656004925.0913379	9.79800	2706.015000000	-10.72	2658.771856488	0.539371000	-3.98	0.538071527	 -154.000	 0.518
1656004926.3011119	9.79200	2706.320000000	-10.72	2659.071531626	0.539433000	-3.98	0.538133377	 -154.000	 -0.331
1656004928.1046691	9.78700	2706.320000000	-10.72	2659.071531626	0.539371000	-3.98	0.538067605	 -154.000	 -1.407
1656004929.3044751	9.77900	2706.625000000	-10.72	2659.371206763	0.539433000	-3.98	0.538129455	 -154.000	 -1.181
1656004931.0448091	9.77500	2706.625000000	-10.72	2659.371206763	0.539433000	-3.98	0.538129455	 -154.000	 -1.747
1656004932.2324171	9.76700	2706.625000000	-10.72	2659.371206763	0.539433000	-3.98	0.538129455	 -154.000	 -1.416
1656004934.1671510	9.76100	2706.625000000	-10.72	2659.371206763	0.539433000	-3.98	0.538129455	 -154.000	 -0.293
1656004935.4078441	9.75700	2706.930000000	-10.72	2659.670881900	0.539494000	-3.98	0.538190308	 -154.000	 -1.608
1656004936.6068430	9.75300	2706.930000000	-10.72	2659.670881900	0.539494000	-3.98	0.538190308	 -154.000	 -1.585
1656004937.8128049	9.74400	2706.930000000	-10.72	2659.670881900	0.539494000	-3.98	0.538190308	 -154.000	 -1.122
1656004940.1452191	9.73800	2707.235000000	-10.72	2659.970557037	0.539555000	-3.98	0.538255083	 -154.000	 -0.869
1656004941.3360460	9.73000	2707.235000000	-10.72	2659.970557037	0.539555000	-3.98	0.538255083	 -154.000	 -1.677
1656004943.1970840	9.72500	2707.235000000	-10.72	2659.970557037	0.539555000	-3.98	0.538255083	 -154.000	 0.572
1656004944.4098499	9.71900	2707.235000000	-10.72	2659.970557037	0.539616000	-3.98	0.538315936	 -154.000	 -0.387
1656004945.6070240	9.71300	2707.540000000	-10.72	2660.270232174	0.539616000	-3.98	0.538312013	 -154.000	 -1.184
1656004946.8048270	9.70500	2707.540000000	-10.72	2660.270232174	0.539616000	-3.98	0.538315936	 -154.000	 0.759
1656004949.0724270	9.69900	2707.540000000	-10.72	2660.270232174	0.539677000	-3.98	0.538376789	 -154.000	 -1.490
1656004950.3101270	9.69200	2707.540000000	-10.72	2660.270232174	0.539677000	-3.98	0.538376789	 -154.000	 0.405
1656004952.0488570	9.68700	2707.845000000	-10.72	2660.569907311	0.539677000	-3.98	0.538372866	 -154.000	 0.376
1656004953.2406659	9.68000	2707.845000000	-10.72	2660.569907311	0.539677000	-3.98	0.538372866	 -154.000	 -1.024
1656004955.1771569	9.67300	2707.845000000	-10.72	2660.569907311	0.539677000	-3.98	0.538376789	 -154.000	 -0.410
1656004956.4128621	9.66700	2707.845000000	-10.73	2660.517137210	0.539738000	-3.98	0.538433718	 -154.000	 0.519
1656004957.6110229	9.66100	2708.150000000	-10.73	2660.816806404	0.539738000	-3.98	0.538437642	 -154.000	 0.241
1656004958.8094771	9.65300	2708.150000000	-10.73	2660.816806404	0.539738000	-3.98	0.538437642	 -154.000	 -0.954
1656004961.2100761	9.64600	2708.150000000	-10.72	2660.869582448	0.539799000	-3.98	0.538498495	 -154.000	 0.796
1656004962.4208510	9.63800	2708.150000000	-10.72	2660.869582448	0.539738000	-3.98	0.538437642	 -154.000	 0.209
1656004964.2100811	9.63300	2708.455000000	-10.72	2661.169257586	0.539799000	-3.98	0.538494571	 -154.000	 -0.765
1656004965.4198580	9.62800	2708.455000000	-10.72	2661.169257586	0.539799000	-3.98	0.538498495	 -154.000	 -1.532
1656004966.6170311	9.62200	2708.455000000	-10.72	2661.169257586	0.539799000	-3.98	0.538498495	 -154.000	 0.037
1656004967.8148301	9.61300	2708.455000000	-10.72	2661.169257586	0.539860000	-3.98	0.538555423	 -154.000	 -1.731
1656004970.0814340	9.60600	2708.760000000	-10.73	2661.416144790	0.539860000	-3.98	0.538555423	 -154.000	 -0.363
1656004971.3151460	9.59900	2708.760000000	-10.72	2661.468932723	0.539860000	-3.98	0.538555423	 -154.000	 0.884
1656004973.0824330	9.59200	2709.065000000	-10.73	2661.715813984	0.539860000	-3.98	0.538555423	 -154.000	 -1.350
1656004974.3181419	9.58400	2709.065000000	-10.73	2661.715813984	0.539921000	-3.98	0.538616276	 -154.000	 0.238
1656004976.2081039	9.57800	2709.065000000	-10.72	2661.768607860	0.539921000	-3.98	0.538616276	 -154.000	 0.648
1656004977.4228680	9.57200	2709.065000000	-10.72	2661.768607860	0.539982000	-3.98	0.538677129	 -154.000	 -0.688
1656004978.6170390	9.56600	2709.065000000	-10.72	2661.768607860	0.539982000	-3.98	0.538677129	 -154.000	 0.635
1656004979.8174860	9.55700	2709.370000000	-10.72	2662.068282997	0.539982000	-3.98	0.538677129	 -154.000	 -1.556
1656004982.1602409	9.54900	2709.370000000	-10.72	2662.068282997	0.539982000	-3.98	0.538681054	 -154.000	 -1.533
1656004983.3544109	9.54300	2709.370000000	-10.73	2662.015483177	0.539982000	-3.98	0.538677129	 -154.000	 -1.163
1656004985.2111089	9.53600	2709.370000000	-10.73	2662.015483177	0.540043000	-3.98	0.538737981	 -154.000	 -1.647
1656004986.4208889	9.53000	2709.675000000	-10.73	2662.315152370	0.540043000	-3.98	0.538737981	 -154.000	 0.555
1656004987.6250401	9.52500	2709.675000000	-10.73	2662.315152370	0.540043000	-3.98	0.538737981	 -154.000	 -1.593
1656004988.8224859	9.51400	2709.675000000	-10.73	2662.315152370	0.540104000	-3.98	0.538798834	 -154.000	 -1.661
1656004991.1183679	9.50900	2709.675000000	-10.73	2662.315152370	0.540104000	-3.98	0.538798834	 -154.000	 -1.326
1656004992.3241539	9.50200	2709.980000000	-10.72	2662.667633271	0.540104000	-3.98	0.538798834	 -154.000	 0.285
1656004994.1203649	9.49500	2709.980000000	-10.72	2662.667633271	0.540104000	-3.98	0.538798834	 -154.000	 -1.028
1656004995.3245120	9.48600	2709.980000000	-10.72	2662.667633271	0.540104000	-3.98	0.538798834	 -154.000	 -0.430
1656004997.2284291	9.48000	2709.980000000	-10.73	2662.614821564	0.540165000	-3.98	0.538863614	 -154.000	 -1.502
1656004998.4268861	9.47300	2710.285000000	-10.73	2662.914490757	0.540165000	-3.98	0.538859686	 -154.000	 -0.474
1656004999.6227019	9.46800	2710.285000000	-10.73	2662.914490757	0.540165000	-3.98	0.538859686	 -154.000	 0.518
1656005000.8248680	9.45700	2710.285000000	-10.73	2662.914490757	0.540226000	-3.98	0.538924467	 -154.000	 -0.642
1656005003.2131319	9.45000	2710.285000000	-10.73	2662.914490757	0.540226000	-3.98	0.538920539	 -154.000	 0.186
1656005004.4258981	9.44500	2710.285000000	-10.73	2662.914490757	0.540226000	-3.98	0.538924467	 -154.000	 0.447
1656005005.6250629	9.43900	2710.590000000	-10.73	2663.214159950	0.540226000	-3.98	0.538920539	 -154.000	 -0.648
1656005006.8288519	9.42700	2710.895000000	-10.73	2663.513829144	0.540287000	-3.98	0.538981392	 -154.000	 -0.664
1656005009.2161331	9.42100	2710.895000000	-10.72	2663.566658683	0.540287000	-3.98	0.538981392	 -154.000	 0.663
1656005010.4259069	9.41600	2710.895000000	-10.72	2663.566658683	0.540287000	-3.98	0.538981392	 -154.000	 -1.531
1656005011.6227231	9.41000	2710.895000000	-10.72	2663.566658683	0.540287000	-3.98	0.538981392	 -154.000	 -1.554
1656005012.8248711	9.39900	2710.895000000	-10.73	2663.513829144	0.540348000	-3.98	0.539042244	 -154.000	 -0.156
1656005015.0725269	9.39300	2711.200000000	-10.73	2663.813498337	0.540348000	-3.98	0.539042244	 -154.000	 -0.219
1656005016.3235469	9.38400	2711.200000000	-10.73	2663.813498337	0.540409000	-3.98	0.539103097	 -154.000	 -0.042
1656005018.1297359	9.37800	2711.200000000	-10.73	2663.813498337	0.540409000	-3.98	0.539103097	 -154.000	 -0.966
1656005019.3281839	9.36800	2711.505000000	-10.73	2664.113167530	0.540409000	-3.98	0.539103097	 -154.000	 -0.298
1656005021.2184861	9.36200	2711.505000000	-10.73	2664.113167530	0.540409000	-3.98	0.539103097	 -154.000	 0.777
1656005022.4339049	9.35100	2711.505000000	-10.73	2664.113167530	0.540409000	-3.98	0.539103097	 -154.000	 0.445
1656005024.3322060	9.34500	2711.505000000	-10.73	2664.113167530	0.540470000	-3.98	0.539163949	 -154.000	 -0.097
1656005025.5775270	9.34000	2711.505000000	-10.73	2664.113167530	0.540470000	-3.98	0.539163949	 -154.000	 -0.658
1656005026.9582019	9.33300	2711.810000000	-10.73	2664.412836724	0.540470000	-3.98	0.539163949	 -154.000	 -1.534
1656005028.1506701	9.32400	2711.810000000	-10.73	2664.412836724	0.540470000	-3.99	0.539160014	 -154.000	 -0.864
1656005029.9741700	9.31700	2711.810000000	-10.73	2664.412836724	0.540531000	-3.98	0.539224802	 -154.000	 0.730
1656005031.1649930	9.30700	2712.115000000	-10.73	2664.712505917	0.540531000	-3.99	0.539220866	 -154.000	 -0.583
1656005032.9588549	9.30000	2712.115000000	-10.73	2664.712505917	0.540531000	-3.98	0.539224802	 -154.000	 0.240
1656005034.1496780	9.29100	2712.115000000	-10.73	2664.712505917	0.540531000	-3.98	0.539224802	 -154.000	 0.780
1656005036.0719140	9.28300	2712.115000000	-10.73	2664.712505917	0.540592000	-3.99	0.539281718	 -154.000	 -1.380
1656005037.2643831	9.27500	2712.725000000	-10.73	2665.311844304	0.540592000	-3.98	0.539285655	 -154.000	 0.425
1656005039.0320430	9.26800	2712.725000000	-10.73	2665.311844304	0.540592000	-3.99	0.539281718	 -154.000	 -1.655
1656005040.2574010	9.25800	2712.725000000	-10.73	2665.311844304	0.540653000	-3.98	0.539346507	 -154.000	 -0.538
1656005042.2055459	9.24900	2712.725000000	-10.73	2665.311844304	0.540653000	-3.98	0.539346507	 -154.000	 -0.503
1656005043.4558749	9.24400	2712.725000000	-10.73	2665.311844304	0.540653000	-3.98	0.539346507	 -154.000	 -0.274
1656005044.6640141	9.23700	2712.725000000	-10.73	2665.311844304	0.540714000	-3.98	0.539407360	 -154.000	 0.540
1656005045.8538420	9.22400	2713.030000000	-10.73	2665.611513497	0.540714000	-3.98	0.539407360	 -154.000	 0.116
1656005048.2501040	9.21700	2713.030000000	-10.73	2665.611513497	0.540714000	-3.98	0.539407360	 -154.000	 0.516
1656005049.4648621	9.21100	2713.030000000	-10.73	2665.611513497	0.540714000	-3.98	0.539407360	 -154.000	 -0.389
1656005050.6640210	9.20500	2713.335000000	-10.73	2665.911182690	0.540775000	-3.98	0.539468212	 -154.000	 0.650
1656005051.8664601	9.19000	2713.335000000	-10.73	2665.911182690	0.540775000	-3.98	0.539468212	 -154.000	 -1.293
1656005054.1872780	9.18500	2713.335000000	-10.73	2665.911182690	0.540775000	-3.98	0.539468212	 -154.000	 -1.354
1656005055.3800969	9.17600	2713.335000000	-10.73	2665.911182690	0.540836000	-3.98	0.539529065	 -154.000	 0.509
1656005057.1683309	9.16900	2713.640000000	-10.73	2666.210851884	0.540836000	-3.98	0.539529065	 -154.000	 -0.062
1656005058.3625031	9.16000	2713.640000000	-10.73	2666.210851884	0.540836000	-3.98	0.539529065	 -154.000	 -0.121
1656005060.1513820	9.15300	2713.640000000	-10.73	2666.210851884	0.540836000	-3.98	0.539529065	 -154.000	 -0.989
1656005061.3655009	9.14300	2713.945000000	-10.73	2666.510521077	0.540897000	-3.99	0.539585979	 -154.000	 -0.577
1656005063.2880170	9.13500	2713.945000000	-10.73	2666.510521077	0.540897000	-3.99	0.539585979	 -154.000	 0.017
1656005064.4778490	9.12900	2713.945000000	-10.73	2666.510521077	0.540897000	-3.98	0.539589918	 -154.000	 -1.644
1656005065.6700280	9.12400	2713.945000000	-10.73	2666.510521077	0.540897000	-3.98	0.539589918	 -154.000	 -1.782
1656005066.8674800	9.11400	2714.250000000	-10.73	2666.810190271	0.540958000	-3.99	0.539646831	 -154.000	 -0.884
1656005069.2690790	9.10700	2714.250000000	-10.73	2666.810190271	0.540897000	-3.99	0.539585979	 -154.000	 0.530
1656005070.4758630	9.09600	2714.560000000	-10.73	2667.114772074	0.540958000	-3.99	0.539646831	 -154.000	 0.538
1656005072.2710781	9.09000	2714.560000000	-10.73	2667.114772074	0.540958000	-3.99	0.539646831	 -154.000	 -1.280
1656005073.4778631	9.08500	2714.560000000	-10.73	2667.114772074	0.540958000	-3.99	0.539646831	 -154.000	 -1.365
1656005074.6760249	9.08100	2714.560000000	-10.73	2667.114772074	0.541019000	-3.99	0.539707683	 -154.000	 -1.404
1656005075.8718359	9.06800	2714.865000000	-10.73	2667.414441267	0.541080000	-3.98	0.539772475	 -154.000	 -1.659
1656005078.1703560	9.06200	2714.865000000	-10.73	2667.414441267	0.541080000	-3.98	0.539772475	 -154.000	 0.218
1656005079.3731501	9.05300	2714.865000000	-10.73	2667.414441267	0.541080000	-3.99	0.539768536	 -154.000	 -1.031
1656005081.2631140	9.04700	2714.865000000	-10.73	2667.414441267	0.541080000	-3.99	0.539768536	 -154.000	 -1.048
1656005082.4788721	9.04100	2714.865000000	-10.73	2667.414441267	0.541080000	-3.99	0.539768536	 -154.000	 0.304
1656005083.7518420	9.03600	2715.170000000	-10.73	2667.714110460	0.541142000	-3.98	0.539834326	 -154.000	 0.563
1656005084.9762161	9.02600	2715.170000000	-10.73	2667.714110460	0.541142000	-3.98	0.539834326	 -154.000	 0.633
1656005086.6800339	9.02200	2715.170000000	-10.73	2667.714110460	0.541142000	-3.99	0.539830385	 -154.000	 -1.614
1656005087.8808351	9.01100	2715.170000000	-10.73	2667.714110460	0.541142000	-3.98	0.539834326	 -154.000	 -1.322
1656005090.2731030	9.00400	2715.475000000	-10.73	2667.960831602	0.541203000	-3.98	0.539895178	 -154.000	 -1.069
1656005091.4802210	8.99900	2715.475000000	-10.73	2668.013779654	0.541203000	-3.98	0.539895178	 -154.000	 0.097
1656005092.6786880	8.99200	2715.475000000	-10.73	2668.013779654	0.541203000	-3.98	0.539895178	 -154.000	 -0.516
1656005093.8748579	8.97900	2715.780000000	-10.73	2668.313448847	0.541264000	-3.98	0.539956031	 -154.000	 -0.114
1656005096.2016530	8.97300	2715.780000000	-10.73	2668.313448847	0.541264000	-3.98	0.539956031	 -154.000	 -1.559
1656005097.3904829	8.96500	2715.780000000	-10.73	2668.313448847	0.541264000	-3.98	0.539956031	 -154.000	 0.403
1656005099.1827090	8.95900	2715.780000000	-10.73	2668.313448847	0.541264000	-3.98	0.539956031	 -154.000	 0.277
1656005100.3771701	8.94900	2715.780000000	-10.73	2668.313448847	0.541264000	-3.98	0.539956031	 -154.000	 -0.895
1656005102.3742051	8.94400	2715.780000000	-10.73	2668.313448847	0.541264000	-3.98	0.539956031	 -154.000	 -0.289
1656005103.6228721	8.93700	2716.085000000	-10.73	2668.613118040	0.541325000	-3.98	0.540016883	 -154.000	 0.687
1656005105.0430951	8.93200	2716.390000000	-10.73	2668.912787234	0.541325000	-3.98	0.540016883	 -154.000	 0.745
1656005106.2804379	8.92100	2716.390000000	-10.73	2668.859821341	0.541325000	-3.99	0.540012942	 -154.000	 -1.596
1656005108.2023139	8.91500	2716.390000000	-10.73	2668.912787234	0.541325000	-3.98	0.540016883	 -154.000	 0.210
1656005109.3974831	8.90600	2716.390000000	-10.73	2668.859821341	0.541325000	-3.99	0.540012942	 -154.000	 0.751
1656005111.2830999	8.89900	2716.390000000	-10.73	2668.859821341	0.541386000	-3.99	0.540073794	 -154.000	 0.620
1656005112.4898860	8.89300	2716.695000000	-10.73	2669.212456427	0.541447000	-3.98	0.540138588	 -154.000	 -1.402
1656005113.6880460	8.88700	2716.695000000	-10.73	2669.212456427	0.541447000	-3.99	0.540134646	 -154.000	 -1.296
1656005114.8954749	8.87600	2716.695000000	-10.73	2669.212456427	0.541447000	-3.99	0.540134646	 -154.000	 0.306
1656005117.2066920	8.87000	2716.695000000	-10.73	2669.212456427	0.541447000	-3.99	0.540134646	 -154.000	 0.168
1656005118.3984940	8.85900	2716.695000000	-10.73	2669.212456427	0.541447000	-3.99	0.540134646	 -154.000	 -0.996
1656005120.2023311	8.85400	2716.695000000	-10.73	2669.212456427	0.541508000	-3.98	0.540199441	 -154.000	 0.768
1656005121.3915160	8.84400	2717.000000000	-10.73	2669.512125620	0.541508000	-3.99	0.540195498	 -154.000	 0.085
1656005123.3961811	8.83800	2717.000000000	-10.73	2669.459147834	0.541508000	-3.99	0.540195498	 -154.000	 -1.731
1656005124.6395049	8.83100	2717.000000000	-10.73	2669.459147834	0.541569000	-3.99	0.540256350	 -154.000	 -0.619
1656005125.9543550	8.82600	2717.000000000	-10.73	2669.459147834	0.541569000	-3.99	0.540256350	 -154.000	 -1.037
1656005127.1970479	8.81700	2717.305000000	-10.73	2669.758811080	0.541569000	-3.99	0.540256350	 -154.000	 0.616
1656005129.1079459	8.81000	2717.305000000	-10.73	2669.758811080	0.541569000	-3.99	0.540256350	 -154.000	 -1.770
1656005130.3007660	8.80000	2717.305000000	-10.73	2669.758811080	0.541630000	-3.98	0.540321146	 -154.000	 0.355
1656005132.1863899	8.79400	2717.305000000	-10.73	2669.811794814	0.541630000	-3.98	0.540321146	 -154.000	 0.203
1656005133.4084940	8.78500	2717.305000000	-10.73	2669.811794814	0.541630000	-3.98	0.540321146	 -154.000	 -0.174
1656005135.2961011	8.77800	2717.610000000	-10.73	2670.111464007	0.541630000	-3.99	0.540317203	 -154.000	 -0.121
1656005136.5128579	8.77100	2717.610000000	-10.73	2670.111464007	0.541630000	-3.99	0.540317203	 -154.000	 -1.454
1656005137.8592701	8.76500	2717.610000000	-10.73	2670.111464007	0.541630000	-3.98	0.540321146	 -154.000	 0.157
1656005139.1109331	8.75600	2717.610000000	-10.73	2670.058474326	0.541691000	-3.99	0.540378055	 -154.000	 -0.478
1656005140.9260981	8.75000	2717.610000000	-10.73	2670.058474326	0.541630000	-3.98	0.540321146	 -154.000	 -1.086
1656005142.1133039	8.74100	2717.915000000	-10.73	2670.358137572	0.541691000	-3.99	0.540378055	 -154.000	 0.409
1656005144.0810571	8.73100	2718.220000000	-10.73	2670.657800819	0.541691000	-3.99	0.540378055	 -154.000	 -0.593
1656005145.3157470	8.72600	2718.220000000	-10.73	2670.657800819	0.541691000	-3.99	0.540378055	 -154.000	 0.505
1656005147.2402699	8.72000	2718.220000000	-10.73	2670.657800819	0.541691000	-3.98	0.540381999	 -154.000	 -0.053
1656005148.4300990	8.71200	2718.220000000	-10.73	2670.657800819	0.541752000	-3.98	0.540442851	 -154.000	 -0.758
1656005149.6202869	8.70500	2718.220000000	-10.73	2670.710802394	0.541752000	-3.99	0.540438907	 -154.000	 -0.089
1656005150.8181090	8.69500	2718.525000000	-10.73	2671.010471587	0.541813000	-3.98	0.540503704	 -154.000	 -1.422
1656005153.2147059	8.68800	2718.525000000	-10.73	2671.010471587	0.541813000	-3.99	0.540499759	 -154.000	 0.355
1656005154.4151449	8.68200	2718.525000000	-10.73	2671.010471587	0.541813000	-3.98	0.540503704	 -154.000	 -0.984
1656005155.6189401	8.67500	2718.525000000	-10.73	2671.010471587	0.541813000	-3.99	0.540499759	 -154.000	 -0.969
1656005156.8210869	8.66400	2718.525000000	-10.73	2670.957464065	0.541813000	-3.99	0.540499759	 -154.000	 -1.617
1656005159.1428959	8.65900	2718.525000000	-10.73	2670.957464065	0.541874000	-3.99	0.540560611	 -154.000	 -0.154
1656005160.3333700	8.64900	2718.830000000	-10.73	2671.257127311	0.541874000	-3.99	0.540560611	 -154.000	 0.598
1656005162.1305799	8.64400	2718.830000000	-10.73	2671.257127311	0.541874000	-3.99	0.540560611	 -154.000	 -0.401
1656005163.3257489	8.63400	2718.830000000	-10.73	2671.257127311	0.541874000	-3.99	0.540560611	 -154.000	 0.524
1656005165.2695611	8.62600	2718.830000000	-10.73	2671.257127311	0.541874000	-3.99	0.540560611	 -154.000	 0.270
1656005166.5168941	8.62000	2719.135000000	-10.73	2671.556790557	0.541935000	-3.99	0.540621463	 -154.000	 0.251
1656005167.8756311	8.61500	2718.830000000	-10.73	2671.257127311	0.541935000	-3.99	0.540621463	 -154.000	 -1.509
1656005169.1312749	8.60400	2719.135000000	-10.73	2671.556790557	0.541935000	-3.99	0.540621463	 -154.000	 -1.516
1656005171.0408340	8.59700	2719.135000000	-10.73	2671.556790557	0.541935000	-3.99	0.540621463	 -154.000	 0.306
1656005172.2326541	8.58800	2719.135000000	-10.73	2671.556790557	0.541935000	-3.99	0.540621463	 -154.000	 -1.736
1656005174.1668580	8.58200	2719.135000000	-10.73	2671.556790557	0.541935000	-3.99	0.540621463	 -154.000	 -0.054
1656005175.3633130	8.57400	2719.135000000	-10.73	2671.556790557	0.541996000	-3.99	0.540682315	 -154.000	 -0.991
1656005177.2247031	8.56700	2719.135000000	-10.73	2671.556790557	0.541996000	-3.99	0.540682315	 -154.000	 0.811
1656005178.4291401	8.56100	2719.440000000	-10.73	2671.856453804	0.541996000	-3.99	0.540682315	 -154.000	 -1.496
1656005179.6249549	8.55200	2719.440000000	-10.73	2671.856453804	0.541996000	-4.00	0.540678363	 -154.000	 -1.659
1656005180.8247550	8.54200	2719.745000000	-10.73	2672.156117050	0.541996000	-3.99	0.540682315	 -154.000	 -1.249
1656005183.1276200	8.53400	2719.745000000	-10.73	2672.156117050	0.541996000	-3.99	0.540682315	 -154.000	 -1.552
1656005184.3264239	8.52600	2719.745000000	-10.73	2672.156117050	0.542057000	-3.99	0.540743168	 -154.000	 -1.499
1656005186.1026890	8.52000	2719.745000000	-10.73	2672.156117050	0.542057000	-3.99	0.540743168	 -154.000	 0.865
1656005187.3267729	8.51200	2719.745000000	-10.73	2672.156117050	0.542057000	-3.99	0.540743168	 -154.000	 -0.133
1656005189.1316140	8.50500	2720.050000000	-10.73	2672.455780296	0.542057000	-3.99	0.540743168	 -154.000	 -0.640
1656005190.3294220	8.49500	2720.050000000	-10.73	2672.455780296	0.542057000	-3.98	0.540747114	 -154.000	 -0.094
1656005192.2303550	8.48900	2720.050000000	-10.73	2672.455780296	0.542118000	-3.99	0.540804020	 -154.000	 -1.329
1656005193.4301610	8.48300	2720.050000000	-10.73	2672.508817554	0.542118000	-3.99	0.540804020	 -154.000	 0.729
1656005194.6313181	8.47700	2720.355000000	-10.73	2672.755443542	0.542118000	-3.99	0.540804020	 -154.000	 0.404
1656005195.8311160	8.46400	2720.355000000	-10.73	2672.755443542	0.542179000	-3.99	0.540864872	 -154.000	 -1.622
1656005198.2034390	8.45800	2720.355000000	-10.73	2672.755443542	0.542179000	-3.99	0.540864872	 -154.000	 -1.182
1656005199.4341590	8.45300	2720.355000000	-10.73	2672.755443542	0.542179000	-3.99	0.540864872	 -154.000	 -1.405
1656005200.6369531	8.44800	2720.355000000	-10.73	2672.755443542	0.542179000	-4.00	0.540860918	 -154.000	 -1.405
1656005201.8357580	8.43500	2720.660000000	-10.73	2673.055106789	0.542179000	-3.99	0.540864872	 -154.000	 -0.478
1656005204.1349881	8.42700	2720.660000000	-10.73	2673.055106789	0.542179000	-3.99	0.540864872	 -154.000	 -1.527
1656005205.3434110	8.42000	2720.660000000	-10.73	2673.055106789	0.542240000	-3.99	0.540925724	 -154.000	 0.092
1656005207.3051779	8.41200	2720.660000000	-10.73	2673.055106789	0.542240000	-3.99	0.540925724	 -154.000	 -0.246
1656005208.5558450	8.40800	2720.660000000	-10.73	2673.055106789	0.542240000	-3.99	0.540925724	 -154.000	 -0.994
1656005210.0591941	8.40000	2720.660000000	-10.73	2673.055106789	0.542240000	-3.99	0.540925724	 -154.000	 -0.398
1656005211.2510240	8.38900	2720.660000000	-10.73	2673.055106789	0.542240000	-3.99	0.540925724	 -154.000	 -1.639
1656005213.1330090	8.38300	2720.965000000	-10.73	2673.354770035	0.542301000	-3.99	0.540986576	 -154.000	 -1.533
1656005214.3394330	8.37400	2720.965000000	-10.73	2673.354770035	0.542240000	-3.99	0.540925724	 -154.000	 -1.518
1656005216.2367280	8.36600	2720.965000000	-10.73	2673.354770035	0.542240000	-3.99	0.540925724	 -154.000	 -1.759
1656005217.4435129	8.35900	2720.965000000	-10.73	2673.354770035	0.542301000	-3.99	0.540986576	 -154.000	 0.175
1656005219.2676489	8.35200	2720.965000000	-10.73	2673.354770035	0.542301000	-3.99	0.540986576	 -154.000	 0.094
1656005220.4551320	8.34400	2720.965000000	-10.73	2673.354770035	0.542301000	-3.98	0.540990525	 -154.000	 -0.344
1656005221.6459589	8.33900	2720.965000000	-10.73	2673.354770035	0.542301000	-3.99	0.540986576	 -154.000	 0.476
1656005222.8401310	8.32800	2721.270000000	-10.73	2673.654433281	0.542362000	-3.99	0.541047428	 -154.000	 0.087
1656005225.1400080	8.32200	2721.270000000	-10.73	2673.654433281	0.542362000	-3.99	0.541047428	 -154.000	 0.584
1656005226.3404479	8.31200	2721.575000000	-10.73	2673.954096527	0.542362000	-3.99	0.541047428	 -154.000	 0.587
1656005228.3221660	8.30400	2721.575000000	-10.73	2673.954096527	0.542362000	-3.99	0.541047428	 -154.000	 0.426
1656005229.5788169	8.29700	2721.575000000	-10.73	2673.954096527	0.542362000	-3.99	0.541047428	 -154.000	 -1.478
1656005231.0761869	8.29100	2721.575000000	-10.73	2673.954096527	0.542362000	-3.99	0.541047428	 -154.000	 -1.037
1656005232.2666550	8.28100	2721.575000000	-10.73	2673.954096527	0.542362000	-3.99	0.541047428	 -154.000	 0.530
1656005234.1476381	8.27200	2721.575000000	-10.73	2673.954096527	0.542423000	-4.00	0.541104325	 -154.000	 -0.286
1656005235.3394649	8.26300	2721.575000000	-10.73	2673.954096527	0.542423000	-3.98	0.541112230	 -154.000	 -0.753
1656005237.2433879	8.25500	2721.880000000	-10.73	2674.253759774	0.542423000	-3.99	0.541108280	 -154.000	 0.907
1656005238.4491739	8.24800	2721.880000000	-10.73	2674.253759774	0.542423000	-4.00	0.541104325	 -154.000	 -0.404
1656005239.6433461	8.24200	2721.880000000	-10.73	2674.253759774	0.542423000	-3.99	0.541108280	 -154.000	 0.055
1656005240.8431520	8.23100	2721.880000000	-10.73	2674.253759774	0.542484000	-4.00	0.541165177	 -154.000	 -0.202
1656005243.1709509	8.22100	2721.880000000	-10.73	2674.253759774	0.542484000	-3.99	0.541169133	 -154.000	 -1.761
1656005244.3634131	8.21300	2721.880000000	-10.73	2674.253759774	0.542484000	-3.99	0.541169133	 -154.000	 -0.336
1656005246.1456599	8.20400	2721.880000000	-10.73	2674.253759774	0.542484000	-3.99	0.541169133	 -154.000	 0.370
1656005247.3554349	8.19600	2722.185000000	-10.73	2674.553423020	0.542484000	-3.99	0.541169133	 -154.000	 -0.201
1656005249.3225391	8.18700	2722.185000000	-10.73	2674.553423020	0.542484000	-3.99	0.541169133	 -154.000	 0.176
1656005250.5858281	8.18100	2722.185000000	-10.73	2674.553423020	0.542545000	-4.00	0.541226028	 -154.000	 -1.589
1656005252.0858281	8.17300	2722.185000000	-10.73	2674.553423020	0.542545000	-3.99	0.541229985	 -154.000	 -1.839
1656005253.2786491	8.16200	2722.185000000	-10.73	2674.553423020	0.542545000	-3.99	0.541229985	 -154.000	 -1.163
1656005255.2234671	8.15400	2722.185000000	-10.73	2674.553423020	0.542606000	-4.00	0.541286880	 -154.000	 0.298
1656005256.4515491	8.14200	2722.185000000	-10.73	2674.553423020	0.542606000	-4.00	0.541286880	 -154.000	 -0.189
1656005258.3451440	8.13600	2722.490000000	-10.73	2674.853086266	0.542606000	-3.99	0.541290837	 -154.000	 -0.370
1656005259.5958140	8.12800	2722.490000000	-10.73	2674.853086266	0.542606000	-4.00	0.541286880	 -154.000	 -0.684
1656005261.0210121	8.12000	2722.490000000	-10.73	2674.853086266	0.542606000	-4.00	0.541286880	 -154.000	 -1.379
1656005262.2609401	8.11000	2722.490000000	-10.73	2674.853086266	0.542667000	-4.00	0.541347732	 -154.000	 -1.323
1656005264.0832131	8.10400	2722.490000000	-10.73	2674.853086266	0.542667000	-4.00	0.541347732	 -154.000	 -1.608
1656005265.2726920	8.09500	2722.795000000	-10.73	2675.152749512	0.542667000	-4.00	0.541347732	 -154.000	 0.317
1656005267.0901949	8.09000	2722.795000000	-10.73	2675.152749512	0.542667000	-4.00	0.541347732	 -154.000	 -1.121
1656005268.2820230	8.08200	2722.795000000	-10.73	2675.152749512	0.542606000	-3.99	0.541290837	 -154.000	 -0.345
1656005270.1048050	8.07600	2722.795000000	-10.73	2675.152749512	0.542606000	-3.99	0.541290837	 -154.000	 -1.303
1656005271.3494890	8.06600	2722.795000000	-10.73	2675.152749512	0.542667000	-3.99	0.541351689	 -154.000	 -1.043
1656005273.2826960	8.05900	2722.795000000	-10.73	2675.152749512	0.542667000	-3.99	0.541351689	 -154.000	 -0.236
1656005274.4711659	8.05400	2722.795000000	-10.73	2675.152749512	0.542667000	-3.99	0.541351689	 -154.000	 0.770
1656005275.6663351	8.04600	2722.795000000	-10.73	2675.152749512	0.542667000	-4.00	0.541347732	 -154.000	 0.890
1656005276.8601561	8.03600	2723.105000000	-10.73	2675.457325271	0.542728000	-3.99	0.541412541	 -154.000	 -1.207
1656005279.2567670	8.03000	2723.105000000	-10.73	2675.457325271	0.542667000	-3.99	0.541351689	 -154.000	 -1.517
1656005280.4582090	8.02500	2723.105000000	-10.73	2675.457325271	0.542728000	-3.99	0.541412541	 -154.000	 -1.509
1656005281.6600039	8.01800	2723.105000000	-10.73	2675.457325271	0.542667000	-3.99	0.541351689	 -154.000	 -1.333
1656005282.8581660	8.00700	2723.105000000	-10.73	2675.457325271	0.542728000	-4.00	0.541408584	 -154.000	 -1.341
1656005285.1839759	8.00100	2723.105000000	-10.73	2675.457325271	0.542728000	-3.99	0.541412541	 -154.000	 0.116
1656005286.3726909	7.99200	2723.410000000	-10.73	2675.756988517	0.542728000	-4.00	0.541408584	 -154.000	 -0.572
1656005288.1610360	7.98400	2723.410000000	-10.73	2675.756988517	0.542789000	-3.99	0.541473393	 -154.000	 -0.169
1656005289.3634729	7.97700	2723.410000000	-10.73	2675.756988517	0.542789000	-3.99	0.541473393	 -154.000	 -1.257
1656005291.1650250	7.97100	2723.410000000	-10.73	2675.756988517	0.542789000	-3.99	0.541473393	 -154.000	 0.335
1656005292.3654721	7.96300	2723.410000000	-10.73	2675.756988517	0.542789000	-3.99	0.541473393	 -154.000	 0.334
1656005294.1138160	7.95500	2723.410000000	-10.73	2675.756988517	0.542789000	-3.99	0.541473393	 -154.000	 -0.044
1656005295.3604889	7.94800	2723.410000000	-10.73	2675.756988517	0.542789000	-3.99	0.541473393	 -154.000	 -1.181
1656005297.2647710	7.93900	2723.410000000	-10.73	2675.756988517	0.542789000	-3.99	0.541473393	 -154.000	 -1.532
1656005298.4602311	7.93100	2723.715000000	-10.73	2676.056651764	0.542789000	-3.99	0.541473393	 -154.000	 0.475
1656005299.6650200	7.92700	2723.715000000	-10.73	2676.056651764	0.542789000	-3.99	0.541473393	 -154.000	 0.539
1656005300.8648231	7.91500	2723.715000000	-10.73	2676.056651764	0.542789000	-3.99	0.541473393	 -154.000	 0.508
1656005303.2169080	7.90800	2723.715000000	-10.73	2676.056651764	0.542789000	-4.00	0.541469435	 -154.000	 -0.472
1656005304.4662220	7.90400	2723.715000000	-10.73	2676.056651764	0.542789000	-3.99	0.541473393	 -154.000	 -1.560
1656005305.6683760	7.89800	2723.715000000	-10.73	2676.056651764	0.542789000	-3.99	0.541473393	 -154.000	 0.357
1656005306.8718131	7.88600	2723.715000000	-10.73	2676.056651764	0.542789000	-3.99	0.541473393	 -154.000	 0.079
1656005309.2644320	7.87900	2723.715000000	-10.73	2676.056651764	0.542789000	-3.99	0.541473393	 -154.000	 0.330
1656005310.4831860	7.87300	2723.715000000	-10.73	2676.056651764	0.542912000	-3.99	0.541596095	 -154.000	 -0.112
1656005311.6720209	7.86700	2723.715000000	-10.73	2676.056651764	0.542850000	-3.99	0.541534246	 -154.000	 0.132
1656005312.8741720	7.85700	2724.020000000	-10.73	2676.356315010	0.542912000	-3.99	0.541596095	 -154.000	 -0.286
1656005315.1201890	7.84800	2724.020000000	-10.73	2676.356315010	0.542912000	-3.99	0.541596095	 -154.000	 0.715
1656005316.3698390	7.83800	2724.020000000	-10.73	2676.356315010	0.542912000	-3.99	0.541596095	 -154.000	 -1.450
1656005318.1268151	7.83600	2724.020000000	-10.73	2676.356315010	0.542912000	-3.99	0.541596095	 -154.000	 -1.258
1656005319.3774800	7.82800	2724.020000000	-10.73	2676.356315010	0.542912000	-3.99	0.541596095	 -154.000	 -1.662
1656005321.2784150	7.81700	2724.020000000	-10.73	2676.356315010	0.542912000	-3.99	0.541596095	 -154.000	 -0.446
1656005322.4842000	7.81300	2724.020000000	-10.73	2676.356315010	0.542973000	-3.99	0.541656947	 -154.000	 -1.643
1656005323.6823659	7.80500	2724.020000000	-10.73	2676.356315010	0.542973000	-3.99	0.541656947	 -154.000	 -0.394
1656005324.8791721	7.79700	2724.020000000	-10.73	2676.356315010	0.542973000	-3.99	0.541656947	 -154.000	 0.065
1656005327.2718019	7.78900	2724.020000000	-10.73	2676.356315010	0.542973000	-4.00	0.541652988	 -154.000	 -1.376
1656005328.4822140	7.78200	2724.020000000	-10.73	2676.356315010	0.542973000	-4.00	0.541652988	 -154.000	 -0.084
1656005329.6800189	7.77700	2724.325000000	-10.73	2676.655978256	0.542973000	-4.00	0.541652988	 -154.000	 -1.582
1656005330.8831730	7.76400	2724.325000000	-10.73	2676.655978256	0.542973000	-3.99	0.541656947	 -154.000	 0.311
1656005333.1717160	7.75900	2724.325000000	-10.73	2676.655978256	0.542973000	-4.00	0.541652988	 -154.000	 -1.320
1656005334.3804901	7.74900	2724.325000000	-10.73	2676.655978256	0.542973000	-3.99	0.541656947	 -154.000	 0.518
1656005336.1331921	7.74400	2724.325000000	-10.73	2676.655978256	0.542973000	-4.00	0.541652988	 -154.000	 -1.642
1656005337.3794971	7.73700	2724.325000000	-10.73	2676.655978256	0.542973000	-3.99	0.541656947	 -154.000	 0.621
1656005339.1796989	7.72900	2724.325000000	-10.73	2676.655978256	0.542973000	-4.00	0.541652988	 -154.000	 0.505
1656005340.3864839	7.72000	2724.325000000	-10.73	2676.655978256	0.543034000	-3.99	0.541717800	 -154.000	 0.150
1656005342.2814341	7.71200	2724.325000000	-10.73	2676.655978256	0.543034000	-4.00	0.541713840	 -154.000	 0.032
1656005343.4885621	7.70500	2724.325000000	-10.73	2676.655978256	0.543034000	-4.00	0.541713840	 -154.000	 -0.777
1656005344.6890180	7.70200	2724.325000000	-10.73	2676.655978256	0.543034000	-3.99	0.541717800	 -154.000	 -1.091
1656005345.8908131	7.68900	2724.325000000	-10.73	2676.655978256	0.543034000	-3.99	0.541717800	 -154.000	 -1.612
1656005348.2827930	7.68100	2724.325000000	-10.73	2676.655978256	0.543034000	-3.99	0.541717800	 -154.000	 -0.243
1656005349.4892220	7.67600	2724.325000000	-10.73	2676.655978256	0.543034000	-4.00	0.541713840	 -154.000	 -0.493
1656005350.6910191	7.67000	2724.630000000	-10.73	2676.955641502	0.543034000	-3.99	0.541717800	 -154.000	 0.007
1656005351.8911750	7.65800	2724.325000000	-10.73	2676.655978256	0.543034000	-3.99	0.541717800	 -154.000	 -0.210
1656005354.1820869	7.65300	2724.630000000	-10.73	2676.955641502	0.543034000	-4.00	0.541713840	 -154.000	 -0.454
1656005355.3934901	7.64400	2724.630000000	-10.73	2676.955641502	0.543034000	-3.99	0.541717800	 -154.000	 -0.929
1656005357.2086480	7.63900	2724.630000000	-10.73	2676.955641502	0.543034000	-3.99	0.541717800	 -154.000	 0.711
1656005358.4004710	7.62700	2724.630000000	-10.73	2676.955641502	0.543034000	-4.00	0.541713840	 -154.000	 -1.568
1656005360.1996760	7.62200	2724.630000000	-10.73	2676.955641502	0.543034000	-3.99	0.541717800	 -154.000	 -0.984
1656005361.4004750	7.61300	2724.630000000	-10.73	2676.955641502	0.543034000	-3.99	0.541717800	 -154.000	 0.039
1656005363.2864511	7.60300	2724.630000000	-10.73	2676.955641502	0.543034000	-3.99	0.541717800	 -154.000	 0.366
1656005364.5022080	7.60200	2724.630000000	-10.73	2676.955641502	0.543095000	-3.99	0.541778652	 -154.000	 0.069
1656005365.6960299	7.59400	2724.630000000	-10.73	2676.955641502	0.543034000	-4.00	0.541713840	 -154.000	 -0.301
1656005366.8958671	7.58000	2724.630000000	-10.73	2676.955641502	0.543034000	-3.99	0.541717800	 -154.000	 -1.225
1656005369.2828190	7.57600	2724.630000000	-10.73	2676.955641502	0.543034000	-4.00	0.541713840	 -154.000	 0.576
1656005370.4952331	7.56800	2724.630000000	-10.73	2676.955641502	0.543095000	-3.99	0.541778652	 -154.000	 -1.181
1656005371.7033679	7.56200	2724.630000000	-10.74	2676.902485585	0.543095000	-3.99	0.541778652	 -154.000	 -1.332
1656005372.8998260	7.55100	2724.630000000	-10.73	2676.955641502	0.543095000	-4.00	0.541774691	 -154.000	 0.052
1656005375.1917169	7.54600	2724.630000000	-10.73	2676.955641502	0.543095000	-3.99	0.541778652	 -154.000	 -1.680
1656005376.3998370	7.53600	2724.630000000	-10.74	2676.902485585	0.543095000	-3.99	0.541778652	 -154.000	 -0.271
1656005378.2170060	7.53000	2724.630000000	-10.74	2676.902485585	0.543095000	-3.99	0.541778652	 -154.000	 -0.853
1656005379.4078231	7.52000	2724.630000000	-10.73	2676.955641502	0.543095000	-4.00	0.541774691	 -154.000	 -1.043
1656005381.2010751	7.51400	2724.630000000	-10.73	2676.955641502	0.543095000	-3.99	0.541778652	 -154.000	 1.013
1656005382.4058321	7.50500	2724.630000000	-10.73	2676.955641502	0.543095000	-3.99	0.541778652	 -154.000	 -1.331
1656005384.2984440	7.49800	2724.935000000	-10.73	2677.255304749	0.543095000	-3.98	0.541782606	 -154.000	 -0.445
1656005385.5082200	7.49200	2724.935000000	-10.73	2677.255304749	0.543095000	-4.00	0.541774691	 -154.000	 -0.083
1656005386.7070229	7.48700	2724.935000000	-10.73	2677.255304749	0.543095000	-3.99	0.541778652	 -154.000	 -0.842
1656005387.9078250	7.47300	2724.935000000	-10.73	2677.255304749	0.543095000	-4.00	0.541774691	 -154.000	 -1.177
1656005390.3024421	7.46700	2724.935000000	-10.73	2677.255304749	0.543095000	-4.00	0.541774691	 -154.000	 0.794
1656005391.5132129	7.46200	2724.935000000	-10.73	2677.255304749	0.543095000	-3.99	0.541778652	 -154.000	 0.190
1656005392.7123740	7.45700	2724.935000000	-10.73	2677.255304749	0.543095000	-3.99	0.541778652	 -154.000	 0.571
1656005393.9111791	7.44600	2724.935000000	-10.73	2677.255304749	0.543095000	-4.00	0.541774691	 -154.000	 -0.847
1656005396.2070651	7.43700	2725.240000000	-10.73	2677.554967995	0.543095000	-3.99	0.541778652	 -154.000	 -0.175
1656005397.4124920	7.43000	2724.935000000	-10.73	2677.255304749	0.543156000	-3.99	0.541839504	 -154.000	 -1.508
1656005399.2236640	7.42000	2724.935000000	-10.73	2677.255304749	0.543095000	-3.99	0.541778652	 -154.000	 -1.392
1656005400.4164820	7.41200	2725.240000000	-10.73	2677.554967995	0.543156000	-4.00	0.541835543	 -154.000	 -1.585
1656005402.2136929	7.40800	2724.935000000	-10.73	2677.255304749	0.543095000	-3.99	0.541778652	 -154.000	 0.532
1656005403.4184830	7.39800	2725.240000000	-10.73	2677.554967995	0.543156000	-4.00	0.541835543	 -154.000	 -1.606
1656005405.3127930	7.38800	2725.240000000	-10.73	2677.554967995	0.543156000	-3.99	0.541839504	 -154.000	 -1.035
1656005406.5182209	7.38400	2725.240000000	-10.73	2677.554967995	0.543156000	-3.99	0.541839504	 -154.000	 0.757
1656005407.7233651	7.38100	2725.240000000	-10.73	2677.554967995	0.543095000	-3.99	0.541778652	 -154.000	 -0.005
1656005408.9251571	7.37000	2725.240000000	-10.73	2677.554967995	0.543156000	-4.00	0.541835543	 -154.000	 -0.582
1656005410.6336150	7.36500	2725.240000000	-10.73	2677.554967995	0.543095000	-3.98	0.541782606	 -154.000	 0.167
1656005411.8300631	7.35300	2725.240000000	-10.73	2677.554967995	0.543156000	-4.00	0.541835543	 -154.000	 0.339
1656005414.1801550	7.35000	2725.240000000	-10.73	2677.554967995	0.543156000	-4.00	0.541835543	 -154.000	 -1.578
1656005415.4224880	7.33800	2725.240000000	-10.73	2677.554967995	0.543095000	-4.00	0.541774691	 -154.000	 0.026
1656005416.6266150	7.33300	2725.240000000	-10.73	2677.554967995	0.543095000	-3.98	0.541782606	 -154.000	 -0.351
1656005417.8224430	7.32200	2725.240000000	-10.73	2677.554967995	0.543156000	-3.99	0.541839504	 -154.000	 0.581
1656005420.1602311	7.31300	2725.240000000	-10.73	2677.554967995	0.543095000	-4.00	0.541774691	 -154.000	 0.866
1656005421.3500450	7.30500	2725.240000000	-10.73	2677.554967995	0.543156000	-3.99	0.541839504	 -154.000	 -0.791
1656005423.1362791	7.30000	2725.240000000	-10.73	2677.554967995	0.543156000	-3.99	0.541839504	 -154.000	 -0.417
1656005424.3281071	7.29100	2725.240000000	-10.73	2677.554967995	0.543095000	-4.00	0.541774691	 -154.000	 -0.025
1656005426.2828970	7.28200	2725.240000000	-10.73	2677.554967995	0.543095000	-3.98	0.541782606	 -154.000	 0.165
1656005427.5282221	7.27700	2725.240000000	-10.73	2677.554967995	0.543156000	-3.99	0.541839504	 -154.000	 -1.520
1656005428.7333710	7.26900	2725.240000000	-10.73	2677.554967995	0.543156000	-4.00	0.541835543	 -154.000	 -1.168
1656005429.9338160	7.26400	2725.240000000	-10.73	2677.554967995	0.543156000	-3.99	0.541839504	 -154.000	 0.159
1656005431.6392620	7.25500	2725.240000000	-10.73	2677.554967995	0.543095000	-4.00	0.541774691	 -154.000	 -0.689
1656005432.8320839	7.24600	2725.240000000	-10.73	2677.554967995	0.543156000	-3.99	0.541839504	 -154.000	 0.741
1656005435.2097490	7.23200	2725.240000000	-10.73	2677.554967995	0.543156000	-4.00	0.541835543	 -154.000	 0.708
1656005436.4354830	7.22800	2725.240000000	-10.73	2677.554967995	0.543156000	-3.99	0.541839504	 -154.000	 -1.737
1656005437.6382761	7.22400	2725.240000000	-10.73	2677.554967995	0.543156000	-4.00	0.541835543	 -154.000	 0.455
1656005438.8434169	7.20800	2725.240000000	-10.73	2677.554967995	0.543156000	-3.99	0.541839504	 -154.000	 -0.445
1656005441.1648791	7.20500	2725.240000000	-10.73	2677.554967995	0.543156000	-3.98	0.541843459	 -154.000	 0.599
1656005442.3570600	7.19600	2725.240000000	-10.73	2677.554967995	0.543156000	-3.98	0.541843459	 -154.000	 -1.761
1656005444.1559031	7.18500	2725.240000000	-10.73	2677.554967995	0.543156000	-3.99	0.541839504	 -154.000	 -0.252
1656005445.3457329	7.17700	2725.240000000	-10.73	2677.554967995	0.543156000	-3.99	0.541839504	 -154.000	 0.592
1656005447.2909040	7.16800	2725.240000000	-10.73	2677.554967995	0.543156000	-4.00	0.541835543	 -154.000	 0.802
1656005448.5372260	7.16100	2725.240000000	-10.73	2677.554967995	0.543156000	-4.00	0.541835543	 -154.000	 -1.578
1656005449.7519860	7.15500	2725.240000000	-10.73	2677.554967995	0.543095000	-3.98	0.541782606	 -154.000	 -1.526
1656005450.9418180	7.14600	2725.240000000	-10.73	2677.554967995	0.543156000	-3.99	0.541839504	 -154.000	 -0.571
1656005452.6482711	7.13500	2725.240000000	-10.73	2677.554967995	0.543095000	-3.98	0.541782606	 -154.000	 -1.693
1656005453.8424430	7.12400	2725.240000000	-10.73	2677.554967995	0.543095000	-3.99	0.541778652	 -154.000	 0.191
1656005456.2181110	7.11800	2725.240000000	-10.73	2677.554967995	0.543095000	-3.98	0.541782606	 -154.000	 -1.762
1656005457.4444830	7.10800	2725.240000000	-10.73	2677.554967995	0.543156000	-3.99	0.541839504	 -154.000	 -1.592
1656005458.6456430	7.10400	2725.240000000	-10.73	2677.554967995	0.543095000	-3.99	0.541778652	 -154.000	 0.752
1656005459.8391039	7.09000	2725.240000000	-10.73	2677.554967995	0.543095000	-3.99	0.541778652	 -154.000	 -1.355
1656005462.1678951	7.08400	2725.240000000	-10.73	2677.554967995	0.543095000	-3.99	0.541778652	 -154.000	 0.290
1656005463.3580840	7.07500	2725.240000000	-10.73	2677.554967995	0.543095000	-4.00	0.541774691	 -154.000	 -1.522
1656005465.1439660	7.07000	2724.935000000	-10.73	2677.255304749	0.543095000	-3.99	0.541778652	 -154.000	 -1.224
1656005466.3497510	7.06000	2725.240000000	-10.73	2677.554967995	0.543095000	-4.00	0.541774691	 -154.000	 -0.534
1656005468.2955639	7.05400	2725.240000000	-10.73	2677.554967995	0.543095000	-3.99	0.541778652	 -154.000	 -0.428
1656005469.5425861	7.04800	2725.240000000	-10.73	2677.554967995	0.543095000	-4.00	0.541774691	 -154.000	 0.049
1656005470.7490251	7.04000	2725.240000000	-10.73	2677.554967995	0.543095000	-3.99	0.541778652	 -154.000	 -1.610
1656005471.9461989	7.03300	2724.935000000	-10.73	2677.255304749	0.543095000	-3.99	0.541778652	 -154.000	 -1.528
1656005473.6522851	7.02500	2724.935000000	-10.73	2677.255304749	0.543095000	-3.98	0.541782606	 -154.000	 0.854
1656005474.8490961	7.01700	2724.935000000	-10.73	2677.255304749	0.543095000	-3.98	0.541782606	 -154.000	 -1.466
1656005477.2247629	7.01100	2724.935000000	-10.73	2677.255304749	0.543095000	-3.98	0.541782606	 -154.000	 0.313
1656005478.4508369	7.00200	2724.935000000	-10.73	2677.255304749	0.543095000	-3.99	0.541778652	 -154.000	 -0.341
1656005479.6546440	6.99600	2724.935000000	-10.73	2677.255304749	0.543095000	-3.99	0.541778652	 -154.000	 -0.141
1656005480.8564401	6.98600	2724.935000000	-10.73	2677.255304749	0.543034000	-3.98	0.541721753	 -154.000	 -1.101
1656005483.1782560	6.98200	2724.630000000	-10.73	2676.955641502	0.543095000	-4.00	0.541774691	 -154.000	 -1.298
1656005484.3690829	6.97000	2724.630000000	-10.73	2676.955641502	0.543095000	-3.99	0.541778652	 -154.000	 -1.363
1656005486.1533279	6.96400	2724.935000000	-10.73	2677.255304749	0.543095000	-3.99	0.541778652	 -154.000	 -1.078
1656005487.3541350	6.95700	2724.630000000	-10.73	2676.955641502	0.543095000	-3.99	0.541778652	 -154.000	 -0.234
1656005489.3029230	6.94900	2724.630000000	-10.73	2676.955641502	0.543034000	-3.99	0.541717800	 -154.000	 0.320
1656005490.5515959	6.94400	2724.630000000	-10.73	2676.955641502	0.543034000	-3.99	0.541717800	 -154.000	 0.441
1656005491.9080031	6.93600	2724.630000000	-10.73	2676.955641502	0.543034000	-3.99	0.541717800	 -154.000	 -0.657
1656005493.1592920	6.92700	2724.630000000	-10.73	2676.955641502	0.543034000	-3.99	0.541717800	 -154.000	 0.765
1656005495.0741899	6.91900	2724.630000000	-10.73	2677.008768064	0.543034000	-3.99	0.541717800	 -154.000	 0.797
1656005496.2643771	6.91100	2724.630000000	-10.73	2676.955641502	0.543034000	-3.99	0.541717800	 -154.000	 -1.059
1656005498.1380210	6.90500	2724.630000000	-10.73	2676.955641502	0.543034000	-3.99	0.541717800	 -154.000	 0.363
1656005499.3587699	6.89600	2724.630000000	-10.73	2676.955641502	0.543034000	-3.99	0.541717800	 -154.000	 0.796
1656005501.2072051	6.88900	2724.630000000	-10.73	2676.955641502	0.543034000	-3.99	0.541717800	 -154.000	 -0.562
1656005502.4495299	6.88600	2724.630000000	-10.73	2677.008768064	0.543034000	-3.99	0.541717800	 -154.000	 0.261
1656005503.6626530	6.87600	2724.630000000	-10.73	2677.008768064	0.543034000	-3.98	0.541721753	 -154.000	 0.506
1656005504.8574691	6.86500	2724.630000000	-10.73	2677.008768064	0.543034000	-3.99	0.541717800	 -154.000	 0.595
1656005507.1613281	6.86000	2724.630000000	-10.73	2677.008768064	0.543034000	-3.99	0.541717800	 -154.000	 -1.348
1656005508.3597789	6.85100	2724.325000000	-10.73	2676.655978256	0.543034000	-3.99	0.541717800	 -154.000	 -0.169
1656005510.1659660	6.84400	2724.325000000	-10.73	2676.655978256	0.543034000	-3.99	0.541717800	 -154.000	 -1.106
1656005511.3567901	6.83500	2724.325000000	-10.73	2676.655978256	0.542973000	-3.99	0.541656947	 -154.000	 0.031
1656005513.1693201	6.83100	2724.325000000	-10.73	2676.655978256	0.542973000	-3.99	0.541656947	 -154.000	 -0.140
1656005514.3587890	6.82000	2724.325000000	-10.73	2676.655978256	0.542973000	-3.98	0.541660901	 -154.000	 -1.549
1656005516.2617190	6.81200	2724.325000000	-10.73	2676.655978256	0.542973000	-3.99	0.541656947	 -154.000	 -0.325
1656005517.4605219	6.80600	2724.325000000	-10.73	2676.655978256	0.542973000	-3.99	0.541656947	 -154.000	 0.331
1656005518.6626770	6.80000	2724.325000000	-10.73	2676.655978256	0.542973000	-3.99	0.541656947	 -154.000	 -0.860
1656005519.8611231	6.79100	2724.325000000	-10.73	2676.655978256	0.542973000	-3.99	0.541656947	 -154.000	 0.775
1656005522.2148471	6.78300	2724.325000000	-10.73	2676.655978256	0.542973000	-3.99	0.541656947	 -154.000	 0.377
1656005523.4625249	6.77700	2724.325000000	-10.73	2676.655978256	0.542973000	-3.98	0.541660901	 -154.000	 -0.298
1656005524.6676750	6.77100	2724.325000000	-10.73	2676.655978256	0.542973000	-3.99	0.541656947	 -154.000	 0.492
1656005525.8621299	6.76300	2724.020000000	-10.73	2676.356315010	0.542912000	-3.98	0.541600048	 -154.000	 0.571
1656005528.1659889	6.75000	2724.020000000	-10.73	2676.356315010	0.542912000	-3.99	0.541596095	 -154.000	 -0.388
1656005529.3657899	6.74300	2724.020000000	-10.73	2676.356315010	0.542912000	-3.99	0.541596095	 -154.000	 -1.791
1656005531.1679871	6.73800	2724.020000000	-10.73	2676.356315010	0.542912000	-3.99	0.541596095	 -154.000	 0.193
1656005532.3638000	6.72900	2724.020000000	-10.73	2676.356315010	0.542912000	-3.99	0.541596095	 -154.000	 -0.965
1656005534.1194830	6.72400	2724.020000000	-10.73	2676.356315010	0.542912000	-3.99	0.541596095	 -154.000	 -1.264
1656005535.3681481	6.71400	2724.020000000	-10.73	2676.356315010	0.542912000	-3.98	0.541600048	 -154.000	 -1.696
1656005537.2740581	6.70600	2724.020000000	-10.73	2676.409429677	0.542912000	-3.98	0.541600048	 -154.000	 0.532
1656005538.4725161	6.70000	2724.020000000	-10.73	2676.409429677	0.542850000	-3.98	0.541538198	 -154.000	 0.538
1656005539.6706800	6.69400	2724.020000000	-10.73	2676.409429677	0.542850000	-3.99	0.541534246	 -154.000	 -1.407
1656005540.8671370	6.68200	2723.715000000	-10.73	2676.109760484	0.542850000	-3.99	0.541534246	 -154.000	 0.916
1656005543.2218599	6.67400	2723.715000000	-10.73	2676.056651764	0.542850000	-3.99	0.541534246	 -154.000	 -1.472
1656005544.4695351	6.66900	2723.715000000	-10.73	2676.109760484	0.542789000	-3.99	0.541473393	 -154.000	 0.373
1656005545.6753221	6.66500	2723.715000000	-10.73	2676.056651764	0.542789000	-3.99	0.541473393	 -154.000	 -0.267
1656005546.8682089	6.64900	2723.715000000	-10.73	2676.056651764	0.542789000	-3.98	0.541477346	 -154.000	 -1.721
1656005549.2727311	6.64700	2723.715000000	-10.73	2676.056651764	0.542789000	-3.99	0.541473393	 -154.000	 -1.501
1656005550.4735301	6.63800	2723.715000000	-10.73	2676.056651764	0.542789000	-3.98	0.541477346	 -154.000	 0.605
1656005551.6786759	6.63200	2723.715000000	-10.73	2676.056651764	0.542789000	-3.98	0.541477346	 -154.000	 -0.024
1656005552.8761280	6.62200	2723.410000000	-10.73	2675.756988517	0.542789000	-3.98	0.541477346	 -154.000	 -0.780
1656005555.1271279	6.61700	2723.410000000	-10.73	2675.756988517	0.542789000	-3.98	0.541477346	 -154.000	 -0.547
1656005556.3721650	6.60300	2723.410000000	-10.73	2675.810091290	0.542728000	-3.99	0.541412541	 -154.000	 0.163
1656005558.1241410	6.60100	2723.410000000	-10.73	2675.810091290	0.542728000	-3.98	0.541416493	 -154.000	 0.525
1656005559.3718131	6.59000	2723.410000000	-10.73	2675.810091290	0.542728000	-3.98	0.541416493	 -154.000	 0.516
1656005561.2531550	6.58900	2723.410000000	-10.73	2675.810091290	0.542728000	-3.99	0.541412541	 -154.000	 -0.961
1656005562.4815259	6.57900	2723.105000000	-10.73	2675.510422097	0.542728000	-3.98	0.541416493	 -154.000	 0.716
1656005563.6846581	6.57000	2723.105000000	-10.73	2675.510422097	0.542728000	-3.98	0.541416493	 -154.000	 -1.523
1656005564.8821311	6.56100	2723.105000000	-10.73	2675.510422097	0.542667000	-3.99	0.541351689	 -154.000	 0.201
1656005567.2069321	6.55200	2723.105000000	-10.73	2675.510422097	0.542667000	-3.98	0.541355640	 -154.000	 -0.282
1656005568.3997531	6.54700	2723.105000000	-10.73	2675.510422097	0.542667000	-3.99	0.541351689	 -154.000	 0.259
1656005570.2721169	6.53700	2722.795000000	-10.73	2675.205840294	0.542667000	-3.98	0.541355640	 -154.000	 0.171
1656005571.4848931	6.52800	2722.795000000	-10.73	2675.205840294	0.542667000	-3.98	0.541355640	 -154.000	 -0.779
1656005573.2761121	6.52400	2722.795000000	-10.73	2675.205840294	0.542667000	-3.98	0.541355640	 -154.000	 0.564
1656005574.4805450	6.51400	2722.795000000	-10.73	2675.152749512	0.542606000	-3.98	0.541294788	 -154.000	 -0.150
1656005575.6893229	6.50900	2722.795000000	-10.73	2675.152749512	0.542667000	-3.98	0.541355640	 -154.000	 -1.304
1656005576.8854959	6.50100	2722.795000000	-10.73	2675.152749512	0.542606000	-3.98	0.541294788	 -154.000	 0.776
1656005579.1105731	6.49500	2722.490000000	-10.73	2674.853086266	0.542606000	-3.98	0.541294788	 -154.000	 0.489
1656005580.3010311	6.48300	2722.490000000	-10.73	2674.906171101	0.542606000	-3.99	0.541290837	 -154.000	 -1.606
1656005582.2352331	6.47700	2722.490000000	-10.73	2674.906171101	0.542606000	-3.98	0.541294788	 -154.000	 -0.109
1656005583.4895370	6.47000	2722.490000000	-10.73	2674.906171101	0.542606000	-3.98	0.541294788	 -154.000	 -1.467
1656005584.6933250	6.46700	2722.185000000	-10.73	2674.606501907	0.542606000	-3.98	0.541298733	 -154.000	 0.420
1656005585.8904879	6.45400	2722.185000000	-10.73	2674.606501907	0.542545000	-3.98	0.541233935	 -154.000	 0.764
1656005588.2761359	6.44500	2722.185000000	-10.73	2674.606501907	0.542545000	-3.98	0.541233935	 -154.000	 0.861
1656005589.4835560	6.43800	2722.185000000	-10.73	2674.606501907	0.542545000	-3.98	0.541233935	 -154.000	 -0.905
1656005590.6906900	6.43300	2722.185000000	-10.73	2674.606501907	0.542545000	-3.98	0.541233935	 -154.000	 -1.619
1656005591.8855219	6.42400	2721.880000000	-10.73	2674.306832714	0.542545000	-3.99	0.541229985	 -154.000	 -0.276
1656005594.1883769	6.41400	2721.880000000	-10.73	2674.306832714	0.542484000	-3.98	0.541173083	 -154.000	 -0.485
1656005595.3888171	6.40400	2721.880000000	-10.73	2674.306832714	0.542484000	-3.99	0.541169133	 -154.000	 -0.802
1656005597.1804030	6.39900	2721.880000000	-10.73	2674.306832714	0.542423000	-3.98	0.541112230	 -154.000	 0.065
1656005598.3848360	6.38900	2721.880000000	-10.73	2674.306832714	0.542423000	-3.98	0.541112230	 -154.000	 -1.379
1656005600.1813979	6.38200	2721.575000000	-10.73	2674.007163520	0.542423000	-3.99	0.541108280	 -154.000	 -1.687
1656005601.3898201	6.37100	2721.575000000	-10.73	2674.007163520	0.542423000	-3.98	0.541112230	 -154.000	 0.520
1656005603.2681630	6.36400	2721.575000000	-10.73	2674.007163520	0.542362000	-3.98	0.541051377	 -154.000	 -1.388
1656005604.4905570	6.35700	2721.575000000	-10.73	2674.007163520	0.542362000	-3.98	0.541051377	 -154.000	 0.470
1656005605.6956980	6.35200	2721.575000000	-10.73	2674.007163520	0.542362000	-3.99	0.541047428	 -154.000	 -0.580
1656005606.8921690	6.33800	2721.270000000	-10.73	2673.707494327	0.542362000	-3.98	0.541051377	 -154.000	 -0.569
1656005609.2837830	6.33300	2721.270000000	-10.73	2673.707494327	0.542362000	-3.98	0.541051377	 -154.000	 0.284
1656005610.5025330	6.32300	2721.270000000	-10.73	2673.707494327	0.542362000	-3.98	0.541051377	 -154.000	 -1.568
1656005611.6983471	6.31900	2720.965000000	-10.73	2673.407825134	0.542362000	-3.98	0.541051377	 -154.000	 -0.562
1656005612.8955009	6.30200	2720.965000000	-10.73	2673.407825134	0.542301000	-3.98	0.540990525	 -154.000	 0.353
1656005615.1930320	6.29900	2720.965000000	-10.73	2673.407825134	0.542301000	-3.98	0.540990525	 -154.000	 0.588
1656005616.3928339	6.29000	2720.965000000	-10.73	2673.407825134	0.542301000	-3.98	0.540990525	 -154.000	 0.466
1656005618.1850569	6.28000	2720.660000000	-10.73	2673.108155940	0.542240000	-3.98	0.540929672	 -154.000	 -1.183
1656005619.3981781	6.27100	2720.660000000	-10.73	2673.108155940	0.542240000	-3.98	0.540929672	 -154.000	 -0.475
1656005621.1884151	6.26400	2720.660000000	-10.73	2673.108155940	0.542240000	-3.98	0.540929672	 -154.000	 -0.910
1656005622.3978260	6.25600	2720.355000000	-10.73	2672.808486747	0.542240000	-3.98	0.540929672	 -154.000	 -1.050
1656005624.1970310	6.24800	2720.355000000	-10.73	2672.808486747	0.542240000	-3.98	0.540929672	 -154.000	 0.933
1656005625.3938429	6.23700	2720.355000000	-10.73	2672.808486747	0.542179000	-3.98	0.540868820	 -154.000	 -1.725
1656005627.2891419	6.23500	2720.355000000	-10.73	2672.808486747	0.542179000	-3.98	0.540868820	 -154.000	 -1.324
1656005628.4965730	6.22800	2720.355000000	-10.73	2672.808486747	0.542179000	-3.98	0.540868820	 -154.000	 -0.566
1656005629.7027130	6.22200	2720.050000000	-10.73	2672.508817554	0.542118000	-3.98	0.540807967	 -154.000	 0.158
1656005630.9041569	6.20900	2720.050000000	-10.72	2672.561825504	0.542057000	-3.98	0.540747114	 -154.000	 -1.413
1656005633.2891440	6.20300	2720.050000000	-10.73	2672.508817554	0.542057000	-3.98	0.540747114	 -154.000	 -0.899
1656005634.4985740	6.20000	2720.050000000	-10.72	2672.561825504	0.542057000	-3.98	0.540747114	 -154.000	 0.521
1656005635.7023661	6.19000	2719.745000000	-10.73	2672.209148360	0.542057000	-3.98	0.540747114	 -154.000	 -1.542
1656005636.9011710	6.18200	2719.745000000	-10.72	2672.262150367	0.542057000	-3.98	0.540751055	 -154.000	 0.112
1656005639.2000411	6.17200	2719.745000000	-10.73	2672.209148360	0.541996000	-3.99	0.540682315	 -154.000	 -0.894
1656005640.4078240	6.16700	2719.745000000	-10.73	2672.209148360	0.541996000	-3.99	0.540682315	 -154.000	 -0.938
1656005642.1900730	6.16000	2719.440000000	-10.73	2671.909479167	0.541996000	-3.98	0.540686262	 -154.000	 -0.541
1656005643.4008460	6.14900	2719.135000000	-10.73	2671.609809974	0.541935000	-3.98	0.540629349	 -154.000	 0.824
1656005645.1990540	6.14700	2719.135000000	-10.73	2671.609809974	0.541935000	-3.98	0.540625409	 -154.000	 -0.400
1656005646.4008501	6.13600	2719.135000000	-10.73	2671.609809974	0.541935000	-3.98	0.540625409	 -154.000	 -0.440
1656005648.2898209	6.12500	2719.135000000	-10.72	2671.662800093	0.541935000	-3.98	0.540625409	 -154.000	 0.557
1656005649.5025821	6.12600	2719.135000000	-10.72	2671.662800093	0.541935000	-3.98	0.540625409	 -154.000	 0.489
1656005650.7057309	6.11500	2718.830000000	-10.72	2671.363124955	0.541874000	-3.98	0.540564557	 -154.000	 -1.518
1656005651.9011891	6.10500	2718.830000000	-10.73	2671.310140780	0.541874000	-3.98	0.540564557	 -154.000	 0.069
1656005654.2911789	6.09900	2718.830000000	-10.73	2671.310140780	0.541813000	-3.98	0.540503704	 -154.000	 0.422
1656005655.5015931	6.09300	2718.525000000	-10.73	2671.010471587	0.541813000	-3.98	0.540503704	 -154.000	 -0.199
1656005656.7047391	6.08700	2718.525000000	-10.72	2671.063449818	0.541813000	-3.98	0.540507643	 -154.000	 -1.135
1656005657.9025559	6.07600	2718.525000000	-10.72	2671.063449818	0.541813000	-3.98	0.540507643	 -154.000	 -0.334
1656005660.1894360	6.06700	2718.220000000	-10.72	2670.763774681	0.541752000	-3.98	0.540442851	 -154.000	 -1.544
1656005661.4042151	6.06000	2718.220000000	-10.72	2670.763774681	0.541691000	-3.98	0.540385937	 -154.000	 -0.772
1656005663.1964400	6.05100	2717.915000000	-10.72	2670.464099544	0.541691000	-3.98	0.540381999	 -154.000	 -1.405
1656005664.4042180	6.04500	2717.915000000	-10.73	2670.411133200	0.541691000	-3.98	0.540385937	 -154.000	 0.369
1656005666.1944680	6.03700	2717.610000000	-10.72	2670.164424407	0.541630000	-3.98	0.540325084	 -154.000	 -1.511
1656005667.4032259	6.03000	2717.610000000	-10.72	2670.164424407	0.541630000	-3.98	0.540325084	 -154.000	 -0.865
1656005669.2951820	6.02300	2717.610000000	-10.72	2670.164424407	0.541630000	-3.98	0.540321146	 -154.000	 0.815
1656005670.5065980	6.01500	2717.610000000	-10.72	2670.164424407	0.541630000	-3.98	0.540325084	 -154.000	 0.051
1656005671.7107480	6.01000	2717.305000000	-10.72	2669.864749270	0.541569000	-3.98	0.540264231	 -154.000	 -1.715
1656005672.9061999	6.00000	2717.305000000	-10.72	2669.864749270	0.541569000	-3.98	0.540264231	 -154.000	 -0.781
1656005675.2971900	5.99500	2717.305000000	-10.72	2669.864749270	0.541569000	-3.98	0.540264231	 -154.000	 0.323
1656005676.5056050	5.98500	2717.000000000	-10.72	2669.565074133	0.541569000	-3.98	0.540264231	 -154.000	 0.061
1656005677.7064080	5.98000	2717.000000000	-10.72	2669.565074133	0.541508000	-3.97	0.540207309	 -154.000	 -1.708
1656005678.9055719	5.96800	2717.000000000	-10.72	2669.565074133	0.541508000	-3.98	0.540203378	 -154.000	 0.389
1656005681.2000949	5.96200	2716.695000000	-10.72	2669.265398996	0.541447000	-3.98	0.540138588	 -154.000	 0.082
1656005682.4078720	5.95200	2716.695000000	-10.72	2669.265398996	0.541447000	-3.98	0.540142525	 -154.000	 0.391
1656005684.2000980	5.94600	2716.390000000	-10.72	2668.965723858	0.541386000	-3.98	0.540081672	 -154.000	 -0.761
1656005685.4048891	5.93700	2716.390000000	-10.72	2668.965723858	0.541386000	-3.98	0.540081672	 -154.000	 -0.457
1656005687.1984770	5.92800	2716.390000000	-10.72	2668.965723858	0.541325000	-3.98	0.540020819	 -154.000	 0.546
1656005688.4092410	5.92400	2716.390000000	-10.72	2668.965723858	0.541325000	-3.98	0.540020819	 -154.000	 0.523
1656005690.2084370	5.91600	2716.085000000	-10.72	2668.666048721	0.541264000	-3.98	0.539959966	 -154.000	 0.261
1656005691.4088831	5.90500	2715.780000000	-10.72	2668.366373584	0.541264000	-3.98	0.539959966	 -154.000	 -1.094
1656005693.3081751	5.89800	2715.475000000	-10.72	2668.066698447	0.541203000	-3.98	0.539899113	 -154.000	 -0.719
1656005694.5119591	5.89000	2715.475000000	-10.72	2668.066698447	0.541203000	-3.98	0.539899113	 -154.000	 -1.478
1656005695.7147660	5.88900	2715.475000000	-10.72	2668.066698447	0.541203000	-3.98	0.539899113	 -154.000	 0.678
1656005696.9125690	5.87600	2715.170000000	-10.72	2667.767023310	0.541203000	-3.97	0.539903042	 -154.000	 -1.556
1656005699.3121741	5.86600	2715.170000000	-10.72	2667.819906904	0.541142000	-3.98	0.539838260	 -154.000	 -1.389
1656005700.5136149	5.86500	2715.170000000	-10.72	2667.819906904	0.541142000	-3.98	0.539838260	 -154.000	 0.869
1656005701.7174079	5.85800	2714.865000000	-10.72	2667.520225826	0.541142000	-3.98	0.539838260	 -154.000	 -0.973
1656005702.9182069	5.84600	2714.865000000	-10.72	2667.520225826	0.541080000	-3.97	0.539780337	 -154.000	 -1.204
1656005705.2304060	5.84000	2714.865000000	-10.72	2667.467348173	0.541080000	-3.98	0.539776409	 -154.000	 -1.617
1656005706.4218681	5.82800	2714.560000000	-10.72	2667.167673036	0.541019000	-3.97	0.539719483	 -154.000	 -1.652
1656005708.2204289	5.82100	2714.560000000	-10.72	2667.220544749	0.540958000	-3.98	0.539654703	 -154.000	 -0.007
1656005709.4162459	5.81600	2714.250000000	-10.72	2666.915950866	0.540958000	-3.97	0.539658630	 -154.000	 -0.981
1656005711.2150929	5.80900	2714.250000000	-10.72	2666.915950866	0.540958000	-3.97	0.539658630	 -154.000	 0.664
1656005712.4198799	5.79800	2713.945000000	-10.72	2666.563410054	0.540897000	-3.98	0.539593850	 -154.000	 0.458
1656005714.3128321	5.79400	2713.945000000	-10.72	2666.563410054	0.540897000	-3.97	0.539597777	 -154.000	 -0.919
1656005715.5229700	5.78200	2713.640000000	-10.72	2666.263734917	0.540897000	-3.97	0.539597777	 -154.000	 0.329
1656005717.4205489	5.77300	2713.640000000	-10.72	2666.316588711	0.540836000	-3.98	0.539532997	 -154.000	 -1.190
1656005718.6416359	5.76900	2713.640000000	-10.72	2666.316588711	0.540836000	-3.98	0.539532997	 -154.000	 0.759
1656005720.0168860	5.76200	2713.335000000	-10.72	2666.016907634	0.540775000	-3.97	0.539476070	 -154.000	 -1.717
1656005721.2204230	5.75500	2713.335000000	-10.72	2666.016907634	0.540775000	-3.98	0.539472144	 -154.000	 -1.325
1656005723.0575271	5.74400	2713.030000000	-10.72	2665.664384643	0.540714000	-3.98	0.539411291	 -154.000	 -1.503
1656005724.2477090	5.74200	2713.030000000	-10.72	2665.664384643	0.540714000	-3.97	0.539415216	 -154.000	 -1.036
1656005726.1502969	5.73000	2712.725000000	-10.72	2665.417545478	0.540714000	-3.97	0.539415216	 -154.000	 0.080
1656005727.3404720	5.72600	2712.725000000	-10.72	2665.417545478	0.540653000	-3.98	0.539350438	 -154.000	 -0.759
1656005729.1413109	5.71700	2712.725000000	-10.72	2665.417545478	0.540592000	-3.97	0.539293509	 -154.000	 -1.287
1656005730.3364799	5.70400	2712.115000000	-10.72	2664.765359231	0.540531000	-3.97	0.539232656	 -154.000	 0.094
1656005732.2599969	5.70000	2712.115000000	-10.72	2664.765359231	0.540531000	-3.97	0.539232656	 -154.000	 -1.782
1656005733.4528151	5.68800	2712.115000000	-10.72	2664.818183323	0.540531000	-3.97	0.539232656	 -154.000	 -0.673
1656005735.3112190	5.68800	2712.115000000	-10.72	2664.818183323	0.540531000	-3.97	0.539232656	 -154.000	 -1.610
1656005736.5236320	5.67500	2711.810000000	-10.72	2664.518502245	0.540470000	-3.97	0.539171802	 -154.000	 0.603
1656005737.7218039	5.67100	2711.810000000	-10.72	2664.518502245	0.540470000	-3.97	0.539171802	 -154.000	 -1.027
1656005738.9202421	5.66300	2711.505000000	-10.72	2664.218821168	0.540409000	-3.97	0.539110949	 -154.000	 -0.551
1656005741.3138621	5.65400	2711.505000000	-10.72	2664.218821168	0.540409000	-3.97	0.539110949	 -154.000	 0.353
1656005742.5236411	5.64500	2711.505000000	-10.72	2664.218821168	0.540348000	-3.97	0.539050095	 -154.000	 -0.988
1656005744.3158629	5.63600	2711.200000000	-10.72	2663.919140090	0.540348000	-3.97	0.539050095	 -154.000	 -0.562
1656005745.5246410	5.62600	2710.895000000	-10.72	2663.619459012	0.540348000	-3.97	0.539050095	 -154.000	 -0.197
1656005746.7247951	5.62000	2710.895000000	-10.72	2663.619459012	0.540226000	-3.97	0.538928388	 -154.000	 -0.583
1656005747.9276049	5.61200	2710.590000000	-10.72	2663.319777935	0.540226000	-3.97	0.538928388	 -154.000	 0.444
1656005750.2171340	5.60300	2710.285000000	-10.72	2663.020096857	0.540165000	-3.97	0.538867535	 -154.000	 -1.114
1656005751.4299009	5.59100	2710.285000000	-10.72	2663.020096857	0.540165000	-3.97	0.538867535	 -154.000	 0.673
1656005753.3188660	5.58500	2709.980000000	-10.72	2662.720415779	0.540165000	-3.97	0.538867535	 -154.000	 0.286
1656005754.5286429	5.57700	2709.675000000	-10.72	2662.420734702	0.540104000	-3.97	0.538806681	 -154.000	 -1.573
1656005756.4249389	5.57200	2709.675000000	-10.72	2662.420734702	0.540104000	-3.97	0.538806681	 -154.000	 0.825
1656005757.6323681	5.55700	2709.370000000	-10.71	2662.173795058	0.540043000	-3.97	0.538749742	 -154.000	 -0.498
1656005759.0579250	5.55000	2709.370000000	-10.71	2662.173795058	0.540043000	-3.97	0.538745828	 -154.000	 -1.401
1656005760.2493930	5.54300	2709.065000000	-10.72	2661.821372546	0.539982000	-3.97	0.538684974	 -154.000	 0.055
1656005762.0685420	5.53700	2708.760000000	-10.72	2661.521691469	0.539921000	-3.97	0.538624121	 -154.000	 -0.045
1656005763.2567310	5.52800	2708.455000000	-10.71	2661.274734013	0.539860000	-3.97	0.538563267	 -154.000	 -0.802
1656005765.0545859	5.51600	2708.150000000	-10.72	2660.922329313	0.539799000	-3.97	0.538506327	 -154.000	 -1.842
1656005766.2467690	5.51600	2708.150000000	-10.72	2660.922329313	0.539799000	-3.97	0.538506327	 -154.000	 -0.397
1656005768.1646690	5.50700	2708.150000000	-10.71	2660.975046998	0.539738000	-3.97	0.538441560	 -154.000	 -1.778
1656005769.3551209	5.50200	2707.845000000	-10.71	2660.675359983	0.539738000	-3.97	0.538441560	 -154.000	 -0.685
1656005771.1257579	5.49200	2707.845000000	-10.71	2660.675359983	0.539677000	-3.97	0.538380707	 -154.000	 0.396
1656005772.3461499	5.48400	2707.540000000	-10.71	2660.375672969	0.539677000	-3.97	0.538380707	 -154.000	 -1.683
1656005774.1267660	5.47500	2707.540000000	-10.72	2660.322967158	0.539616000	-3.97	0.538323765	 -154.000	 0.982
1656005775.3415229	5.46600	2707.235000000	-10.71	2660.075985954	0.539555000	-3.97	0.538262911	 -154.000	 -1.471
1656005777.2510750	5.46100	2706.930000000	-10.71	2659.776298939	0.539494000	-3.97	0.538202057	 -154.000	 0.657
1656005778.4432590	5.45200	2706.625000000	-10.71	2659.476611924	0.539433000	-3.97	0.538141203	 -154.000	 -0.413
1656005780.3268790	5.44300	2706.320000000	-10.71	2659.176924909	0.539433000	-3.97	0.538141203	 -154.000	 0.572
1656005781.5376480	5.43700	2706.320000000	-10.71	2659.176924909	0.539433000	-3.97	0.538141203	 -154.000	 -0.827
1656005783.4325981	5.43000	2706.320000000	-10.71	2659.176924909	0.539371000	-3.97	0.538075442	 -154.000	 -1.767
1656005784.6363900	5.42100	2706.015000000	-10.71	2658.877237894	0.539310000	-3.97	0.538018498	 -154.000	 0.714
1656005786.0147140	5.41600	2706.015000000	-10.71	2658.877237894	0.539310000	-3.97	0.538018498	 -154.000	 -0.838
1656005787.2424450	5.40300	2705.710000000	-10.71	2658.577550879	0.539249000	-3.97	0.537957644	 -154.000	 0.539
1656005789.1706600	5.40500	2705.710000000	-10.71	2658.577550879	0.539249000	-3.97	0.537957644	 -154.000	 0.492
1656005790.3671191	5.39200	2705.095000000	-10.71	2657.973263948	0.539127000	-3.96	0.537839838	 -154.000	 -0.760
1656005792.1557109	5.38200	2704.790000000	-10.71	2657.673576933	0.539127000	-3.97	0.537835936	 -154.000	 -1.647
1656005793.3431859	5.37400	2704.790000000	-10.71	2657.673576933	0.539066000	-3.97	0.537775082	 -154.000	 -1.805
1656005795.1287911	5.36400	2704.485000000	-10.70	2657.426507117	0.539005000	-3.97	0.537714228	 -154.000	 0.753
1656005796.3465500	5.36900	2704.485000000	-10.70	2657.426507117	0.539005000	-3.97	0.537714228	 -154.000	 -1.765
1656005798.2560880	5.35200	2704.180000000	-10.71	2657.074202903	0.538944000	-3.97	0.537653374	 -154.000	 -1.076
1656005799.4462709	5.34300	2703.570000000	-10.70	2656.527428271	0.538883000	-3.96	0.537596420	 -154.000	 -0.684
1656005801.3322461	5.33600	2703.570000000	-10.70	2656.527428271	0.538822000	-3.96	0.537535566	 -154.000	 -1.684
1656005802.5470140	5.32900	2703.265000000	-10.71	2656.175141858	0.538822000	-3.97	0.537531666	 -154.000	 0.548
1656005804.4435959	5.32100	2702.960000000	-10.70	2655.928042373	0.538761000	-3.96	0.537474712	 -154.000	 -1.690
1656005805.6503789	5.31600	2702.960000000	-10.70	2655.928042373	0.538761000	-3.97	0.537470812	 -154.000	 0.429
1656005807.0230761	5.30700	2702.655000000	-10.70	2655.628349424	0.538700000	-3.96	0.537413857	 -154.000	 -1.419
1656005808.2534420	5.30000	2702.655000000	-10.70	2655.628349424	0.538639000	-3.97	0.537349104	 -154.000	 -0.034
1656005810.1823010	5.29400	2702.350000000	-10.70	2655.328656476	0.538639000	-3.97	0.537349104	 -154.000	 -0.894
1656005811.3701341	5.28200	2702.045000000	-10.70	2655.028963527	0.538517000	-3.96	0.537231294	 -154.000	 -0.434
1656005813.1427691	5.27800	2702.045000000	-10.70	2655.028963527	0.538517000	-3.97	0.537227397	 -154.000	 0.444
1656005814.3501911	5.26600	2701.435000000	-10.70	2654.429577629	0.538456000	-3.96	0.537170440	 -154.000	 0.550
1656005816.1447630	5.26200	2701.130000000	-10.70	2654.129884680	0.538395000	-3.96	0.537109585	 -154.000	 0.523
1656005817.3545430	5.25400	2701.130000000	-10.70	2654.129884680	0.538334000	-3.96	0.537048731	 -154.000	 -1.425
1656005819.2643111	5.24700	2700.825000000	-10.70	2653.830191732	0.538334000	-3.96	0.537048731	 -154.000	 -0.702
1656005820.4539211	5.23700	2700.520000000	-10.70	2653.530498783	0.538273000	-3.96	0.536987877	 -154.000	 -0.108
1656005822.3482330	5.22900	2700.520000000	-10.70	2653.530498783	0.538212000	-3.96	0.536927022	 -154.000	 0.532
1656005823.5500360	5.21900	2700.215000000	-10.70	2653.230805834	0.538151000	-3.95	0.536870057	 -154.000	 -0.858
1656005825.4516010	5.21000	2699.910000000	-10.70	2652.931112885	0.538090000	-3.95	0.536809202	 -154.000	 -1.222
1656005826.6563890	5.20600	2699.910000000	-10.70	2652.931112885	0.538090000	-3.97	0.536801419	 -154.000	 0.390
1656005828.0307269	5.19600	2699.300000000	-10.70	2652.331726987	0.537968000	-3.96	0.536683605	 -154.000	 0.549
1656005829.2664330	5.19600	2699.605000000	-10.70	2652.631419936	0.538029000	-3.96	0.536744459	 -154.000	 -0.477
1656005831.1876791	5.18600	2698.995000000	-10.70	2652.032034039	0.537907000	-3.96	0.536622750	 -154.000	 0.666
1656005832.3755000	5.17500	2698.690000000	-10.70	2651.732341090	0.537846000	-3.96	0.536561896	 -154.000	 -1.620
1656005834.1507659	5.16800	2698.690000000	-10.70	2651.732341090	0.537846000	-3.95	0.536565783	 -154.000	 0.368
1656005835.3655350	5.15700	2698.385000000	-10.70	2651.485117585	0.537724000	-3.95	0.536444073	 -154.000	 0.327
1656005837.2951319	5.15000	2698.080000000	-10.70	2651.132955192	0.537724000	-3.96	0.536440187	 -154.000	 0.586
1656005838.4842191	5.14300	2697.775000000	-10.70	2650.833262243	0.537663000	-3.95	0.536383218	 -154.000	 -1.702
1656005840.3582230	5.13800	2697.470000000	-10.70	2650.586020947	0.537601000	-3.96	0.536317481	 -154.000	 -1.575
1656005841.5676429	5.12600	2697.165000000	-10.70	2650.233876346	0.537540000	-3.95	0.536260511	 -154.000	 0.275
1656005843.4645910	5.11700	2696.855000000	-10.70	2649.929270398	0.537479000	-3.95	0.536199656	 -154.000	 0.644
1656005844.6703751	5.11100	2696.550000000	-10.70	2649.682011212	0.537479000	-3.96	0.536195772	 -154.000	 -1.406
1656005846.0596740	5.10400	2696.550000000	-10.70	2649.682011212	0.537418000	-3.95	0.536138802	 -154.000	 0.249
1656005847.2718170	5.09900	2696.245000000	-10.70	2649.382312333	0.537357000	-3.95	0.536077947	 -154.000	 0.285
1656005849.2176089	5.08400	2695.635000000	-10.70	2648.782914574	0.537296000	-3.95	0.536017092	 -154.000	 -1.504
1656005850.4709120	5.08100	2695.635000000	-10.70	2648.782914574	0.537235000	-3.95	0.535956237	 -154.000	 -0.349
1656005852.2771001	5.06900	2695.330000000	-10.70	2648.483215694	0.537174000	-3.95	0.535895382	 -154.000	 -1.273
1656005853.4719141	5.06200	2695.025000000	-10.70	2648.183516815	0.537113000	-3.95	0.535834528	 -154.000	 -0.340
1656005855.2634931	5.05400	2694.720000000	-10.70	2647.883817935	0.537052000	-3.95	0.535773673	 -154.000	 0.849
1656005856.4699240	5.04300	2694.110000000	-10.70	2647.284420177	0.536991000	-3.95	0.535716693	 -154.000	 -1.401
1656005858.2681310	5.04200	2694.110000000	-10.69	2647.336777464	0.536991000	-3.95	0.535716693	 -154.000	 -1.676
1656005859.4712789	5.02600	2693.500000000	-10.70	2646.685022418	0.536808000	-3.95	0.535530254	 -154.000	 0.554
1656005861.3608861	5.02600	2693.805000000	-10.70	2646.984721297	0.536869000	-3.95	0.535591108	 -154.000	 -0.938
1656005862.5666740	5.01400	2693.195000000	-10.70	2646.385323538	0.536747000	-3.95	0.535469399	 -154.000	 -0.889
1656005864.4709549	5.00400	2692.890000000	-10.70	2646.085624659	0.536686000	-3.95	0.535408544	 -154.000	 -1.003
1656005865.6707430	5.00000	2692.585000000	-10.69	2645.838253430	0.536625000	-3.95	0.535347689	 -154.000	 0.188
1656005867.0710330	4.99300	2692.280000000	-10.69	2645.538548623	0.536564000	-3.95	0.535286834	 -154.000	 -0.294
1656005868.2744601	4.98500	2691.975000000	-10.70	2645.186528020	0.536503000	-3.95	0.535229851	 -154.000	 0.184
1656005870.2252569	4.97300	2691.670000000	-10.69	2644.939139009	0.536442000	-3.95	0.535168995	 -154.000	 -0.868
1656005871.4683070	4.96600	2691.060000000	-10.69	2644.339729396	0.536381000	-3.95	0.535108140	 -154.000	 0.472
1656005873.2851040	4.96600	2691.365000000	-10.70	2644.587130261	0.536381000	-3.95	0.535104270	 -154.000	 -1.119
1656005874.4772811	4.95500	2690.755000000	-10.69	2644.040024589	0.536259000	-3.95	0.534982560	 -154.000	 -1.665
1656005876.2744901	4.95000	2690.450000000	-10.69	2643.740319782	0.536198000	-3.95	0.534921706	 -154.000	 -1.867
1656005877.4842629	4.93300	2689.840000000	-10.69	2643.140910168	0.536137000	-3.95	0.534864719	 -154.000	 0.183
1656005879.2745020	4.93100	2689.840000000	-10.69	2643.140910168	0.536076000	-3.95	0.534803864	 -154.000	 0.448
1656005880.4849100	4.92200	2689.230000000	-10.69	2642.541500555	0.536015000	-3.95	0.534743009	 -154.000	 -1.417
1656005882.3738790	4.91700	2689.230000000	-10.69	2642.541500555	0.535954000	-3.95	0.534682153	 -154.000	 -1.044
1656005883.5899930	4.90700	2688.620000000	-10.69	2641.942090941	0.535892000	-3.95	0.534620301	 -154.000	 -0.083
1656005885.4839621	4.89500	2688.315000000	-10.69	2641.642386134	0.535770000	-3.95	0.534498590	 -154.000	 0.126
1656005886.6843860	4.89000	2688.005000000	-10.69	2641.337768134	0.535709000	-3.94	0.534441594	 -154.000	 -0.567
1656005888.0726919	4.88700	2687.700000000	-10.69	2641.090267080	0.535709000	-3.94	0.534441594	 -154.000	 -0.908
1656005889.2884481	4.87800	2687.395000000	-10.69	2640.738358520	0.535648000	-3.94	0.534380739	 -154.000	 -1.123
1656005891.0600879	4.86900	2686.785000000	-10.69	2640.191134888	0.535526000	-3.95	0.534255169	 -154.000	 0.357
1656005892.2918029	4.86800	2686.785000000	-10.69	2640.191134888	0.535526000	-3.94	0.534259027	 -154.000	 0.809
1656005894.1186421	4.85800	2686.480000000	-10.69	2639.839244100	0.535465000	-3.94	0.534198172	 -154.000	 0.429
1656005895.3087561	4.84400	2686.175000000	-10.69	2639.591713426	0.535343000	-3.94	0.534076460	 -154.000	 0.839
1656005897.1907430	4.83900	2685.565000000	-10.69	2638.992291964	0.535282000	-3.94	0.534015605	 -154.000	 0.298
1656005898.3915460	4.82700	2684.955000000	-10.69	2638.392870502	0.535160000	-3.95	0.533890038	 -154.000	 0.272
1656005900.3413441	4.82300	2684.955000000	-10.69	2638.340720065	0.535099000	-3.94	0.533833038	 -154.000	 -1.699
1656005901.5846739	4.81400	2684.345000000	-10.69	2637.793449040	0.535099000	-3.94	0.533836887	 -154.000	 0.965
1656005903.4907310	4.80600	2684.040000000	-10.69	2637.493738309	0.534977000	-3.94	0.533711326	 -154.000	 -1.652
1656005904.6903951	4.80100	2684.040000000	-10.69	2637.493738309	0.534916000	-3.94	0.533650471	 -154.000	 -1.823
1656005906.1059840	4.79400	2683.735000000	-10.69	2637.194027578	0.534855000	-3.94	0.533589615	 -154.000	 0.295
1656005907.3057771	4.78400	2683.125000000	-10.69	2636.594606117	0.534794000	-3.94	0.533528759	 -154.000	 -0.900
1656005909.1179550	4.77900	2682.820000000	-10.69	2636.294895386	0.534733000	-3.94	0.533467904	 -154.000	 -0.641
1656005910.3074250	4.77000	2682.515000000	-10.69	2635.995184655	0.534672000	-3.94	0.533410894	 -154.000	 0.053
1656005912.1089771	4.76000	2682.210000000	-10.69	2635.695473924	0.534550000	-3.94	0.533285336	 -154.000	 0.486
1656005913.3004451	4.75600	2681.905000000	-10.69	2635.395763193	0.534489000	-3.94	0.533224481	 -154.000	 -0.808
1656005915.1096239	4.74400	2681.295000000	-10.68	2634.848392185	0.534428000	-3.93	0.533171308	 -154.000	 -1.418
1656005916.3008089	4.73500	2680.990000000	-10.69	2634.496631000	0.534306000	-3.94	0.533041914	 -154.000	 -0.800
1656005918.1196001	4.73100	2680.990000000	-10.69	2634.496631000	0.534306000	-3.94	0.533045757	 -154.000	 0.749
1656005919.3097830	4.72600	2680.380000000	-10.68	2633.949242230	0.534245000	-3.94	0.532984901	 -154.000	 -0.759
1656005921.1907761	4.71000	2679.770000000	-10.68	2633.349808927	0.534061000	-3.94	0.532801335	 -154.000	 -1.592
1656005922.3962009	4.70900	2679.460000000	-10.68	2633.045178887	0.534061000	-3.94	0.532797493	 -154.000	 0.666
1656005924.3250611	4.69800	2679.155000000	-10.68	2632.745462235	0.534000000	-3.93	0.532744315	 -154.000	 -1.478
1656005925.5148890	4.68800	2678.545000000	-10.68	2632.146028932	0.533878000	-3.94	0.532618767	 -154.000	 -1.821
1656005927.3938789	4.68100	2678.240000000	-10.68	2631.846312280	0.533817000	-3.94	0.532557911	 -154.000	 0.826
1656005928.6020141	4.67000	2677.630000000	-10.68	2631.246878977	0.533695000	-3.94	0.532436198	 -154.000	 -0.670
1656005930.4989679	4.66500	2677.325000000	-10.68	2630.947162325	0.533634000	-3.93	0.532379175	 -154.000	 -0.446
1656005931.6994021	4.66100	2677.325000000	-10.67	2630.999106860	0.533573000	-3.94	0.532314486	 -154.000	 -0.416
1656005933.0637660	4.65200	2676.715000000	-10.68	2630.347729022	0.533512000	-3.93	0.532257462	 -154.000	 -0.133
1656005934.3118010	4.64300	2676.410000000	-10.67	2630.099939153	0.533390000	-3.94	0.532131918	 -154.000	 0.609
1656005936.1459100	4.63700	2675.800000000	-10.68	2629.448579067	0.533329000	-3.94	0.532071062	 -154.000	 0.239
1656005937.3343840	4.62600	2675.190000000	-10.67	2628.901048876	0.533207000	-3.94	0.531949350	 -154.000	 -0.227
1656005939.1439140	4.62100	2675.190000000	-10.68	2628.849145763	0.533146000	-3.94	0.531888493	 -154.000	 0.901
1656005940.3313949	4.60900	2674.580000000	-10.67	2628.301603737	0.533024000	-3.93	0.531770610	 -154.000	 -0.262
1656005942.1495500	4.61200	2674.580000000	-10.67	2628.301603737	0.533024000	-3.93	0.531770610	 -154.000	 -0.865
1656005943.3437231	4.59800	2673.665000000	-10.67	2627.402436030	0.532841000	-3.93	0.531588040	 -154.000	 -0.827
1656005945.2486460	4.58500	2672.750000000	-10.67	2626.503268322	0.532719000	-3.93	0.531466327	 -154.000	 0.240
1656005946.4434569	4.58700	2673.055000000	-10.67	2626.802990891	0.532719000	-3.93	0.531466327	 -154.000	 -1.638
1656005948.3071351	4.57300	2672.140000000	-10.67	2625.903823184	0.532597000	-3.93	0.531344614	 -154.000	 -0.555
1656005949.5072899	4.56300	2671.530000000	-10.67	2625.356181358	0.532475000	-3.93	0.531222901	 -154.000	 -0.510
1656005951.4028809	4.55900	2671.225000000	-10.67	2625.004655476	0.532413000	-3.92	0.531164865	 -154.000	 0.399
1656005952.6140161	4.54800	2670.610000000	-10.67	2624.452082326	0.532230000	-3.92	0.530982294	 -154.000	 0.703
1656005954.4052351	4.53700	2670.000000000	-10.67	2623.852625359	0.532169000	-3.93	0.530917620	 -154.000	 -0.510
1656005955.6110430	4.53400	2669.695000000	-10.67	2623.552896876	0.532047000	-3.92	0.530799723	 -154.000	 -1.470
1656005957.4082329	4.52800	2669.390000000	-10.67	2623.201406576	0.531925000	-3.92	0.530678009	 -154.000	 -0.757
1656005958.6110289	4.52300	2669.085000000	-10.67	2622.953439909	0.531925000	-3.92	0.530678009	 -154.000	 0.354
1656005960.4118690	4.51400	2668.475000000	-10.67	2622.353982942	0.531803000	-3.92	0.530556295	 -154.000	 -1.315
1656005961.6126690	4.50500	2667.865000000	-10.67	2621.754525975	0.531742000	-3.92	0.530499246	 -154.000	 -0.666
1656005962.9933431	4.50000	2667.560000000	-10.67	2621.454797492	0.531620000	-3.92	0.530373724	 -154.000	 -1.600
1656005964.2167270	4.48600	2666.645000000	-10.67	2620.555612042	0.531437000	-3.92	0.530191153	 -154.000	 -1.347
1656005966.1535659	4.48600	2666.645000000	-10.66	2620.607291892	0.531437000	-3.92	0.530191153	 -154.000	 0.501
1656005967.3434060	4.47200	2665.730000000	-10.67	2619.656426591	0.531254000	-3.92	0.530008582	 -154.000	 -1.462
1656005969.2895610	4.46700	2665.120000000	-10.67	2619.056969625	0.531193000	-3.92	0.529951529	 -154.000	 -0.881
1656005970.5159359	4.45800	2664.815000000	-10.66	2618.808885526	0.531071000	-3.92	0.529826011	 -154.000	 0.545
1656005972.4142301	4.45000	2664.205000000	-10.66	2618.209416737	0.531010000	-3.92	0.529765154	 -154.000	 -1.100
1656005973.6156740	4.43800	2663.595000000	-10.66	2617.609947949	0.530827000	-3.92	0.529586384	 -154.000	 -0.009
1656005975.0687990	4.43800	2663.290000000	-10.66	2617.310213554	0.530827000	-3.92	0.529586384	 -154.000	 -0.622
1656005976.3178301	4.43300	2662.985000000	-10.66	2617.010479160	0.530766000	-3.92	0.529525527	 -154.000	 -0.854
1656005978.1589150	4.42200	2662.375000000	-10.66	2616.411010371	0.530643000	-3.92	0.529402814	 -154.000	 -0.452
1656005979.3477499	4.41200	2661.455000000	-10.66	2615.506893510	0.530460000	-3.91	0.529224034	 -154.000	 0.349
1656005981.1954689	4.40600	2661.455000000	-10.66	2615.506893510	0.530399000	-3.92	0.529159384	 -154.000	 -1.462
1656005982.4172120	4.39100	2660.235000000	-10.66	2614.307955932	0.530216000	-3.91	0.528980603	 -154.000	 0.173
1656005984.3680110	4.39300	2660.540000000	-10.66	2614.607690327	0.530216000	-3.92	0.528976812	 -154.000	 -1.558
1656005985.6236670	4.38700	2659.930000000	-10.66	2614.059742585	0.530155000	-3.92	0.528915955	 -154.000	 -0.548
1656005986.9780540	4.37700	2659.320000000	-10.66	2613.460261981	0.529972000	-3.91	0.528737172	 -154.000	 -0.493
1656005988.2250850	4.36800	2658.710000000	-10.66	2612.809283961	0.529911000	-3.92	0.528672525	 -154.000	 0.646
1656005990.1409931	4.36000	2658.100000000	-10.66	2612.261300773	0.529789000	-3.91	0.528554598	 -154.000	 -1.584
1656005991.3324490	4.34800	2657.185000000	-10.66	2611.362079867	0.529606000	-3.91	0.528372024	 -154.000	 -0.748
1656005993.2127981	4.34500	2656.880000000	-10.66	2611.062339565	0.529545000	-3.91	0.528311166	 -154.000	 0.080
1656005994.4285581	4.34200	2656.880000000	-10.65	2611.113772903	0.529423000	-3.91	0.528189451	 -154.000	 -1.539
1656005996.2736311	4.32900	2655.965000000	-10.66	2610.163118659	0.529362000	-3.91	0.528128593	 -154.000	 0.867
1656005997.5193131	4.32100	2655.355000000	-10.66	2609.563638055	0.529240000	-3.91	0.528010655	 -154.000	 0.553
1656005999.3294950	4.31100	2654.745000000	-10.66	2608.964157451	0.529057000	-3.91	0.527824303	 -154.000	 -1.203
1656006000.5352581	4.30500	2654.135000000	-10.65	2608.416057046	0.528996000	-3.91	0.527763446	 -154.000	 -0.974
1656006002.3311300	4.29700	2653.520000000	-10.65	2607.811650761	0.528873000	-3.91	0.527640732	 -154.000	 0.689
1656006003.5349231	4.29400	2653.215000000	-10.65	2607.511904555	0.528812000	-3.91	0.527579874	 -154.000	 0.934
1656006005.3274989	4.27900	2652.300000000	-10.65	2606.612665935	0.528629000	-3.91	0.527397301	 -154.000	 -1.808
1656006006.5369220	4.27800	2651.995000000	-10.65	2606.312919729	0.528568000	-3.91	0.527340216	 -154.000	 0.175
1656006008.3265240	4.27100	2651.690000000	-10.65	2606.013173523	0.528507000	-3.91	0.527279358	 -154.000	 -0.669
1656006009.5412669	4.26100	2650.775000000	-10.65	2605.113934904	0.528324000	-3.91	0.527096783	 -154.000	 0.838
1656006011.4332390	4.25000	2650.165000000	-10.65	2604.514442491	0.528141000	-3.90	0.526917973	 -154.000	 0.341
1656006012.6376560	4.25100	2650.165000000	-10.65	2604.514442491	0.528141000	-3.91	0.526914208	 -154.000	 -0.669
1656006014.1031070	4.23900	2649.250000000	-10.65	2603.615203872	0.527958000	-3.91	0.526731633	 -154.000	 -1.802
1656006015.3398180	4.22200	2648.030000000	-10.65	2602.416219047	0.527775000	-3.89	0.526556576	 -154.000	 -1.192
1656006017.1978581	4.22100	2647.725000000	-10.64	2602.167700415	0.527775000	-3.91	0.526549058	 -154.000	 -0.585
1656006018.4352059	4.21300	2646.810000000	-10.64	2601.268444093	0.527531000	-3.90	0.526309385	 -154.000	 -1.558
1656006020.2586989	4.20600	2646.505000000	-10.65	2600.917488015	0.527470000	-3.90	0.526248527	 -154.000	 -1.740
1656006021.4471769	4.19600	2645.590000000	-10.64	2600.069435663	0.527348000	-3.90	0.526126809	 -154.000	 -0.175
1656006023.2437439	4.19100	2645.285000000	-10.64	2599.769683555	0.527225000	-3.90	0.526004094	 -154.000	 -1.211
1656006024.4382031	4.18100	2644.365000000	-10.64	2598.865513264	0.527042000	-3.90	0.525821518	 -154.000	 -0.934
1656006026.2427490	4.17800	2644.060000000	-10.64	2598.565761157	0.526981000	-3.90	0.525760659	 -154.000	 -0.075
1656006027.4382081	4.16300	2642.840000000	-10.64	2597.366752727	0.526737000	-3.89	0.525520973	 -154.000	 -0.946
1656006029.3594370	4.16100	2642.535000000	-10.64	2597.067000620	0.526676000	-3.90	0.525456365	 -154.000	 0.623
1656006030.5482731	4.14700	2641.620000000	-10.64	2596.167744297	0.526432000	-3.89	0.525216677	 -154.000	 -1.499
1656006032.4378829	4.14900	2641.315000000	-10.64	2595.919067278	0.526432000	-3.89	0.525216677	 -154.000	 -0.702
1656006033.6416709	4.13800	2640.400000000	-10.64	2595.019793263	0.526249000	-3.89	0.525034099	 -154.000	 -1.539
1656006035.1167381	4.13300	2640.400000000	-10.64	2595.019793263	0.526188000	-3.89	0.524973240	 -154.000	 -0.744
1656006036.3454621	4.12100	2638.875000000	-10.64	2593.521003237	0.526005000	-3.89	0.524790663	 -154.000	 0.031
1656006038.2623551	4.11700	2638.570000000	-10.64	2593.221245232	0.525883000	-3.89	0.524668944	 -154.000	 0.087
1656006039.4525380	4.10500	2637.350000000	-10.64	2592.022213211	0.525639000	-3.89	0.524425508	 -154.000	 -0.523
1656006041.2633650	4.10400	2637.350000000	-10.64	2592.022213211	0.525639000	-3.89	0.524429243	 -154.000	 0.454
1656006042.4615171	4.09000	2635.820000000	-10.64	2590.518509119	0.525333000	-3.89	0.524120214	 -154.000	 -1.424
1656006044.2437720	4.09000	2635.820000000	-10.64	2590.518509119	0.525272000	-3.89	0.524059355	 -154.000	 -0.715
1656006045.4422159	4.07500	2634.600000000	-10.63	2589.370393944	0.525089000	-3.89	0.523880509	 -154.000	 -1.178
1656006047.2507589	4.07100	2633.990000000	-10.63	2588.770866144	0.524967000	-3.89	0.523758790	 -154.000	 -0.241
1656006048.4422209	4.07100	2633.990000000	-10.63	2588.770866144	0.524967000	-3.89	0.523758790	 -154.000	 0.268
1656006050.1919110	4.05400	2632.465000000	-10.63	2587.272046646	0.524662000	-3.89	0.523454491	 -154.000	 0.458
1656006051.4332480	4.04500	2631.550000000	-10.63	2586.372754947	0.524479000	-3.89	0.523268186	 -154.000	 -0.630
1656006053.3421590	4.03900	2631.245000000	-10.63	2586.072991047	0.524357000	-3.89	0.523150193	 -154.000	 -0.663
1656006054.5423160	4.02800	2630.025000000	-10.63	2584.924735530	0.524174000	-3.89	0.522967615	 -154.000	 0.600
1656006056.4412589	4.02900	2630.025000000	-10.63	2584.924735530	0.524174000	-3.88	0.522971334	 -154.000	 0.682
1656006057.6426959	4.01900	2629.110000000	-10.63	2584.025426157	0.523991000	-3.88	0.522788754	 -154.000	 0.474
1656006059.1048009	4.01600	2628.500000000	-10.63	2583.425886576	0.523869000	-3.88	0.522667034	 -154.000	 0.015
1656006060.3484831	4.00000	2626.970000000	-10.63	2581.922123362	0.523563000	-3.88	0.522361736	 -154.000	 -0.308
1656006062.1865840	3.99500	2626.665000000	-10.63	2581.622353571	0.523502000	-3.88	0.522300876	 -154.000	 -0.252
1656006063.3774130	3.98000	2625.140000000	-10.63	2580.123504617	0.523197000	-3.88	0.521996575	 -154.000	 -0.482
1656006065.2224929	3.98000	2624.835000000	-10.62	2579.874406370	0.523136000	-3.88	0.521935715	 -154.000	 -1.055
1656006066.4505689	3.96800	2623.615000000	-10.62	2578.675303654	0.522892000	-3.88	0.521695979	 -154.000	 0.509
1656006068.4023709	3.96200	2623.005000000	-10.62	2578.075752297	0.522770000	-3.88	0.521574259	 -154.000	 0.037
1656006069.6486931	3.95600	2622.395000000	-10.62	2577.476200939	0.522648000	-3.87	0.521456234	 -154.000	 -1.289
1656006070.8504879	3.95200	2621.785000000	-10.62	2576.876649581	0.522526000	-3.88	0.521330817	 -154.000	 0.516
1656006072.0506451	3.94000	2620.565000000	-10.62	2575.677546866	0.522282000	-3.87	0.521091069	 -154.000	 -1.739
1656006074.4402831	3.93000	2619.345000000	-10.62	2574.478444151	0.522038000	-3.88	0.520843933	 -154.000	 0.768
1656006075.6590271	3.92200	2618.425000000	-10.62	2573.574202759	0.521915000	-3.88	0.520721214	 -154.000	 -1.756
1656006077.5809259	3.91800	2617.815000000	-10.61	2573.025159210	0.521793000	-3.87	0.520603184	 -154.000	 0.219
1656006078.7933171	3.91600	2617.510000000	-10.61	2572.725377647	0.521671000	-3.87	0.520481462	 -154.000	 -0.172
1656006080.1207769	3.90600	2616.290000000	-10.61	2571.526251393	0.521488000	-3.87	0.520298879	 -154.000	 0.290
1656006081.3654621	3.89800	2615.375000000	-10.61	2570.626906703	0.521305000	-3.87	0.520116297	 -154.000	 -0.993
1656006083.1975820	3.88500	2614.155000000	-10.61	2569.478189466	0.521000000	-3.87	0.519811992	 -154.000	 -1.770
1656006084.3937471	3.87900	2613.240000000	-10.61	2568.578827131	0.520878000	-3.87	0.519690270	 -154.000	 -0.422
1656006086.2045641	3.87100	2612.325000000	-10.61	2567.679464797	0.520634000	-3.86	0.519450504	 -154.000	 -0.695
1656006087.4482479	3.87100	2612.020000000	-10.61	2567.379677352	0.520573000	-3.86	0.519389642	 -154.000	 0.586
1656006089.4050310	3.85800	2610.800000000	-10.61	2566.180527573	0.520329000	-3.87	0.519142522	 -154.000	 -1.499
1656006090.6566961	3.85200	2609.880000000	-10.60	2565.326549140	0.520145000	-3.86	0.518962615	 -154.000	 -0.289
1656006091.9362841	3.84800	2609.575000000	-10.61	2564.976463245	0.520084000	-3.86	0.518901754	 -154.000	 -0.572
1656006093.1633761	3.83300	2607.440000000	-10.60	2562.928202557	0.519657000	-3.86	0.518475725	 -154.000	 0.882
1656006095.5599771	3.83100	2607.135000000	-10.60	2562.628409234	0.519596000	-3.86	0.518418527	 -154.000	 -1.635
1656006096.8003199	3.82400	2606.525000000	-10.60	2562.028822588	0.519474000	-3.86	0.518296804	 -154.000	 -0.018
1656006098.1487250	3.81100	2605.000000000	-10.60	2560.529855974	0.519169000	-3.85	0.517996150	 -154.000	 -0.532
1656006099.3758099	3.80000	2603.475000000	-10.60	2559.030889360	0.518864000	-3.86	0.517688186	 -154.000	 0.688
1656006101.2278690	3.80000	2603.780000000	-10.60	2559.330682683	0.518925000	-3.86	0.517749048	 -154.000	 -0.939
1656006102.4741960	3.79100	2602.255000000	-10.60	2557.881839517	0.518620000	-3.85	0.517448390	 -154.000	 -0.745
1656006104.2857201	3.77900	2600.725000000	-10.60	2556.377928788	0.518375000	-3.85	0.517203944	 -154.000	 -0.875
1656006105.4755590	3.77200	2599.505000000	-10.60	2555.178731997	0.518070000	-3.85	0.516903275	 -154.000	 0.509
1656006107.2893610	3.76300	2598.590000000	-10.60	2554.279334404	0.517887000	-3.85	0.516717046	 -154.000	 0.394
1656006108.4802971	3.75900	2597.675000000	-10.60	2553.379936812	0.517704000	-3.85	0.516534460	 -154.000	 -0.162
1656006110.2744019	3.75100	2596.760000000	-10.59	2552.530528834	0.517582000	-3.85	0.516416374	 -154.000	 0.235
1656006111.4675789	3.74300	2595.540000000	-10.59	2551.331308558	0.517338000	-3.85	0.516172923	 -154.000	 -0.316
1656006113.3904591	3.73700	2594.625000000	-10.59	2550.431893350	0.517094000	-3.85	0.515925838	 -154.000	 -1.457
1656006114.5822761	3.72400	2592.795000000	-10.59	2548.633062936	0.516727000	-3.85	0.515563299	 -154.000	 -0.680
1656006116.4718821	3.71500	2591.570000000	-10.59	2547.428927822	0.516483000	-3.85	0.515319849	 -154.000	 -1.566
1656006117.6667011	3.71800	2591.570000000	-10.59	2547.428927822	0.516544000	-3.84	0.515384337	 -154.000	 -0.092
1656006119.1387770	3.71000	2590.960000000	-10.58	2546.879167716	0.516361000	-3.84	0.515201747	 -154.000	 -1.499
1656006120.3764760	3.70200	2589.435000000	-10.58	2545.380113029	0.516056000	-3.83	0.514901049	 -154.000	 -0.488
1656006122.2375140	3.69800	2588.825000000	-10.58	2544.780491154	0.515934000	-3.85	0.514772085	 -154.000	 0.637
1656006123.4705851	3.68400	2586.995000000	-10.58	2542.981625531	0.515629000	-3.83	0.514475004	 -154.000	 -1.543
1656006125.2993550	3.67900	2586.080000000	-10.58	2542.131920982	0.515446000	-3.83	0.514292414	 -154.000	 -1.350
1656006126.4881849	3.66200	2583.940000000	-10.58	2539.978601224	0.514957000	-3.83	0.513804508	 -154.000	 0.333
1656006128.2737801	3.65900	2583.025000000	-10.58	2539.128837931	0.514835000	-3.83	0.513682781	 -154.000	 -1.275
1656006129.4712861	3.65500	2582.110000000	-10.58	2538.229387524	0.514591000	-3.83	0.513439327	 -154.000	 0.696
1656006131.2844009	3.64000	2579.975000000	-10.57	2536.180252966	0.514164000	-3.83	0.513013283	 -154.000	 0.708
1656006132.4772220	3.63700	2579.670000000	-10.58	2535.830853106	0.514103000	-3.83	0.512952419	 -154.000	 0.530
1656006134.3961070	3.62800	2578.450000000	-10.57	2534.681139647	0.513859000	-3.83	0.512712561	 -154.000	 0.835
1656006135.5829451	3.61800	2576.010000000	-10.57	2532.282558336	0.513432000	-3.83	0.512286513	 -154.000	 -1.238
1656006137.4709110	3.61700	2576.315000000	-10.57	2532.582381000	0.513493000	-3.83	0.512347377	 -154.000	 -0.865
1656006138.6760590	3.60600	2574.480000000	-10.57	2530.827979591	0.513065000	-3.83	0.511920332	 -154.000	 0.030
1656006140.5999260	3.60000	2573.870000000	-10.57	2530.178884564	0.512943000	-3.82	0.511802188	 -154.000	 -1.652
1656006141.8193181	3.58900	2571.735000000	-10.57	2528.129522891	0.512516000	-3.82	0.511376137	 -154.000	 -1.460
1656006143.1431451	3.58500	2570.820000000	-10.57	2527.230037325	0.512394000	-3.82	0.511254409	 -154.000	 -0.675
1656006144.3864770	3.57200	2568.380000000	-10.56	2524.880713992	0.511845000	-3.82	0.510706630	 -154.000	 -1.016
1656006146.2734461	3.57500	2569.295000000	-10.56	2525.780217124	0.512028000	-3.82	0.510889223	 -154.000	 -1.295
1656006147.4812310	3.56300	2566.855000000	-10.56	2523.381542106	0.511539000	-3.82	0.510404878	 -154.000	 -1.319
1656006149.2957611	3.55300	2565.325000000	-10.56	2521.877454902	0.511234000	-3.82	0.510100554	 -154.000	 -0.565
1656006150.4855800	3.55100	2563.800000000	-10.56	2520.378283016	0.510990000	-3.82	0.509857095	 -154.000	 -1.231
1656006152.2907629	3.53000	2561.970000000	-10.55	2518.628430926	0.510624000	-3.82	0.509491907	 -154.000	 0.774
1656006153.4902101	3.52600	2560.445000000	-10.55	2517.129229782	0.510258000	-3.81	0.509130272	 -154.000	 0.222
1656006155.2269361	3.52800	2560.750000000	-10.55	2517.429070010	0.510380000	-3.81	0.509252002	 -154.000	 -1.452
1656006156.4157670	3.52300	2559.225000000	-10.55	2515.929868866	0.509953000	-3.81	0.508825946	 -154.000	 -0.339
1656006158.2030060	3.51700	2558.310000000	-10.55	2515.030348179	0.509892000	-3.81	0.508765081	 -154.000	 -1.594
1656006159.3998120	3.50400	2556.170000000	-10.55	2512.975566499	0.509281000	-3.80	0.508158972	 -154.000	 -0.877
1656006161.3286719	3.49900	2554.950000000	-10.55	2511.776182190	0.509220000	-3.80	0.508098106	 -154.000	 0.606
1656006162.5204959	3.48400	2552.510000000	-10.55	2509.377413570	0.508732000	-3.80	0.507614713	 -154.000	 -1.596
1656006164.3755460	3.47500	2550.680000000	-10.55	2507.578337105	0.508366000	-3.80	0.507245988	 -154.000	 -0.133
1656006165.5843320	3.46500	2549.150000000	-10.54	2506.123044453	0.508060000	-3.80	0.506944189	 -154.000	 -1.258
1656006167.3901601	3.46400	2548.540000000	-10.54	2505.523340608	0.507938000	-3.80	0.506818931	 -154.000	 0.262
1656006168.5879641	3.45100	2546.405000000	-10.54	2503.473150334	0.507450000	-3.79	0.506339046	 -154.000	 -1.743
1656006170.3883719	3.44900	2546.405000000	-10.54	2503.473150334	0.507450000	-3.79	0.506339046	 -154.000	 -0.282
1656006171.5843339	3.43800	2543.660000000	-10.54	2500.774430453	0.506962000	-3.79	0.505852114	 -154.000	 0.261
1656006173.3935170	3.43800	2542.745000000	-10.54	2499.874857160	0.506718000	-3.79	0.505608648	 -154.000	 -1.281
1656006174.5872180	3.42500	2540.605000000	-10.54	2497.770937107	0.506290000	-3.79	0.505181585	 -154.000	 -1.490
1656006176.4978831	3.41700	2539.385000000	-10.53	2496.620117396	0.506107000	-3.79	0.504998986	 -154.000	 -0.141
1656006177.6897080	3.41600	2538.470000000	-10.53	2495.720526587	0.505863000	-3.79	0.504755520	 -154.000	 0.346
1656006179.1910651	3.40300	2535.725000000	-10.53	2493.021754159	0.505375000	-3.79	0.504272086	 -154.000	 -0.334
1656006180.3905060	3.39700	2534.505000000	-10.53	2491.822299746	0.505070000	-3.79	0.503967752	 -154.000	 -1.098
1656006182.3336780	3.38900	2532.980000000	-10.53	2490.322981731	0.504826000	-3.78	0.503727772	 -154.000	 -1.580
1656006183.5839951	3.37800	2530.535000000	-10.52	2487.967571758	0.504337000	-3.78	0.503239836	 -154.000	 -0.223
1656006185.4151120	3.36800	2528.400000000	-10.52	2485.916832230	0.503910000	-3.78	0.502813765	 -154.000	 0.166
1656006186.6019490	3.36100	2526.875000000	-10.52	2484.417455878	0.503605000	-3.77	0.502512902	 -154.000	 -1.164
1656006188.3925309	3.35600	2525.350000000	-10.52	2482.918079525	0.503300000	-3.77	0.502208564	 -154.000	 0.524
1656006189.5889900	3.34500	2522.905000000	-10.52	2480.514161374	0.502811000	-3.77	0.501724087	 -154.000	 -1.251
1656006191.4015100	3.34500	2522.295000000	-10.51	2479.962613443	0.502750000	-3.77	0.501659756	 -154.000	 -0.830
1656006192.5993190	3.33900	2521.380000000	-10.52	2479.014785021	0.502567000	-3.77	0.501477153	 -154.000	 0.731
1656006194.3941801	3.32500	2517.415000000	-10.51	2475.164515855	0.501713000	-3.76	0.500631911	 -154.000	 -0.092
1656006195.5933421	3.32500	2516.805000000	-10.51	2474.612824213	0.501591000	-3.76	0.500510173	 -154.000	 -1.280
1656006197.4932799	3.31300	2514.055000000	-10.51	2471.908925712	0.501102000	-3.76	0.500022227	 -154.000	 -0.242
1656006198.6987059	3.30400	2512.835000000	-10.51	2470.709378013	0.500797000	-3.76	0.499721322	 -154.000	 0.622
1656006200.1967130	3.30500	2512.530000000	-10.50	2470.457452902	0.500675000	-3.76	0.499596147	 -154.000	 0.695
1656006201.4054880	3.29300	2509.175000000	-10.50	2467.158632687	0.500065000	-3.76	0.498990895	 -154.000	 -0.452
1656006203.2904661	3.28800	2508.565000000	-10.50	2466.558847193	0.499941000	-3.76	0.498867161	 -154.000	 -1.425
1656006204.4995961	3.27500	2504.900000000	-10.50	2462.955217957	0.499208000	-3.75	0.498139157	 -154.000	 0.400
1656006206.3433261	3.26900	2503.070000000	-10.49	2461.203615717	0.498903000	-3.76	0.497831391	 -154.000	 0.354
1656006207.5321610	3.26000	2501.240000000	-10.49	2459.404224323	0.498537000	-3.74	0.497473006	 -154.000	 0.381
1656006209.3217471	3.26000	2501.240000000	-10.49	2459.404224323	0.498476000	-3.75	0.497408725	 -154.000	 -1.590
1656006210.5115731	3.24200	2496.655000000	-10.49	2454.943518031	0.497561000	-3.74	0.496499089	 -154.000	 -1.690
1656006212.3167601	3.24100	2495.735000000	-10.49	2454.038888422	0.497438000	-3.74	0.496376351	 -154.000	 0.022
1656006213.5095840	3.22600	2492.380000000	-10.48	2450.787436772	0.496706000	-3.74	0.495649307	 -154.000	 0.746
1656006215.4470651	3.22600	2491.770000000	-10.48	2450.187616385	0.496645000	-3.74	0.495588437	 -154.000	 -1.568
1656006216.6378880	3.22000	2489.330000000	-10.48	2447.788334836	0.496157000	-3.74	0.495101475	 -154.000	 -1.408
1656006218.5069039	3.20300	2485.970000000	-10.48	2444.531753731	0.495485000	-3.74	0.494430905	 -154.000	 0.493
1656006219.7116930	3.19500	2484.140000000	-10.48	2442.732257715	0.495058000	-3.73	0.494008190	 -154.000	 -1.236
1656006221.0883811	3.19500	2483.530000000	-10.48	2442.132425710	0.494936000	-3.73	0.493886449	 -154.000	 -1.437
1656006222.3157520	3.17800	2478.950000000	-10.47	2437.675956166	0.494081000	-3.73	0.493036627	 -154.000	 -1.699
1656006224.1950979	3.18300	2480.175000000	-10.47	2438.880560150	0.494265000	-3.73	0.493220238	 -154.000	 0.510
1656006225.4194801	3.16600	2474.680000000	-10.46	2433.524130034	0.493227000	-3.72	0.492187786	 -154.000	 -0.481
1656006227.2748849	3.16000	2472.850000000	-10.46	2431.724564369	0.492861000	-3.72	0.491822557	 -154.000	 0.643
1656006228.5182171	3.15100	2469.490000000	-10.46	2428.467397622	0.492128000	-3.71	0.491094443	 -154.000	 -1.517
1656006230.3273940	3.15300	2470.405000000	-10.46	2429.367197852	0.492311000	-3.72	0.491273716	 -154.000	 0.647
1656006231.5172250	3.14300	2466.440000000	-10.46	2425.468063524	0.491518000	-3.71	0.490485724	 -154.000	 0.624
1656006233.3323879	3.12800	2462.170000000	-10.45	2421.315783871	0.490725000	-3.71	0.489694389	 -154.000	 0.015
1656006234.5275619	3.12100	2460.030000000	-10.45	2419.258013285	0.490297000	-3.70	0.489273929	 -154.000	 -0.030
1656006236.4580550	3.11600	2457.895000000	-10.45	2417.158398297	0.489870000	-3.71	0.488844505	 -154.000	 -1.733
1656006237.6528730	3.11300	2456.980000000	-10.45	2416.258563303	0.489748000	-3.70	0.488726075	 -154.000	 -1.588
1656006238.8456891	3.10200	2453.320000000	-10.44	2412.705790319	0.488894000	-3.70	0.487873857	 -154.000	 -1.513
1656006240.0385110	3.09200	2449.655000000	-10.44	2409.101463643	0.488222000	-3.70	0.487206557	 -154.000	 0.873
1656006242.4311330	3.08100	2446.910000000	-10.43	2406.448325492	0.487612000	-3.69	0.486601115	 -154.000	 -0.569
1656006243.6229579	3.08100	2446.300000000	-10.43	2405.848412345	0.487551000	-3.69	0.486540241	 -154.000	 0.029
1656006245.5192590	3.07100	2443.855000000	-10.43	2403.443842436	0.487001000	-3.69	0.485991382	 -154.000	 0.746
1656006246.7296770	3.06300	2439.890000000	-10.43	2399.590666431	0.486269000	-3.68	0.485264174	 -154.000	 0.490
1656006247.9318240	3.06000	2438.975000000	-10.43	2398.690779362	0.486147000	-3.68	0.485142426	 -154.000	 -1.427
1656006249.1296320	3.04500	2433.785000000	-10.42	2393.632619345	0.485109000	-3.68	0.484109832	 -154.000	 -0.468
1656006251.4265089	3.02900	2429.515000000	-10.42	2389.479075785	0.484194000	-3.67	0.483199967	 -154.000	 0.880
1656006252.6299491	3.02700	2427.990000000	-10.42	2387.979206226	0.483950000	-3.68	0.482953219	 -154.000	 -1.141
1656006254.4285080	3.02300	2425.545000000	-10.42	2385.574497327	0.483461000	-3.67	0.482468472	 -154.000	 -1.174
1656006255.6293049	3.00300	2420.360000000	-10.41	2380.520751684	0.482424000	-3.67	0.481436834	 -154.000	 -1.627
1656006257.5222671	3.01200	2420.970000000	-10.41	2381.120711053	0.482546000	-3.67	0.481558584	 -154.000	 -0.833
1656006258.7320230	3.00700	2419.750000000	-10.41	2379.920792315	0.482241000	-3.66	0.481257434	 -154.000	 -0.337
1656006259.9358270	2.99300	2414.865000000	-10.40	2375.207535224	0.481264000	-3.66	0.480282427	 -154.000	 0.663
1656006261.1336420	2.99000	2412.730000000	-10.40	2373.107596682	0.480837000	-3.65	0.479859510	 -154.000	 0.713
1656006263.5229080	2.97800	2407.845000000	-10.40	2368.302819268	0.479860000	-3.65	0.478884496	 -154.000	 0.094
1656006264.7336831	2.97600	2407.845000000	-10.40	2368.302819268	0.479860000	-3.65	0.478887696	 -154.000	 -0.201
1656006265.9378271	2.96800	2403.270000000	-10.39	2363.848360587	0.479006000	-3.65	0.478035426	 -154.000	 0.405
1656006267.1342800	2.95300	2396.860000000	-10.38	2357.634005409	0.477724000	-3.64	0.476762379	 -154.000	 -1.189
1656006269.4424961	2.95100	2396.250000000	-10.38	2357.033988410	0.477541000	-3.64	0.476576574	 -154.000	 -0.209
1656006270.6369481	2.94100	2392.590000000	-10.38	2353.433886419	0.476931000	-3.64	0.475970976	 -154.000	 -1.702
1656006271.8440740	2.93800	2390.145000000	-10.37	2351.073984536	0.476381000	-3.64	0.475422083	 -154.000	 -0.029
1656006273.0435319	2.92000	2382.210000000	-10.37	2343.313604619	0.474794000	-3.62	0.473844573	 -154.000	 -0.943
1656006275.3178251	2.92100	2383.125000000	-10.37	2344.168738464	0.474916000	-3.62	0.473966329	 -154.000	 0.210
1656006276.5441980	2.91000	2378.245000000	-10.36	2339.458153101	0.473757000	-3.62	0.472812780	 -154.000	 -1.690
1656006278.4444849	2.90400	2374.275000000	-10.36	2335.552899913	0.473146000	-3.61	0.472206122	 -154.000	 -1.612
1656006279.6369569	2.89900	2371.835000000	-10.36	2333.197356077	0.472780000	-3.61	0.471840849	 -154.000	 -1.342
1656006280.8397479	2.89500	2369.700000000	-10.36	2331.097135634	0.472292000	-3.61	0.471353818	 -154.000	 0.879
1656006282.0375559	2.87800	2361.765000000	-10.34	2323.380266928	0.471010000	-3.61	0.470077470	 -154.000	 -0.911
1656006284.3946350	2.87000	2359.020000000	-10.34	2320.679880212	0.470095000	-3.60	0.469167375	 -154.000	 0.626
1656006285.6409509	2.86700	2354.745000000	-10.34	2316.518624054	0.469301000	-3.59	0.468378025	 -154.000	 0.032
1656006287.4321771	2.85500	2352.305000000	-10.34	2314.118234440	0.468752000	-3.59	0.467830105	 -154.000	 -1.608
1656006288.6429479	2.85100	2348.335000000	-10.34	2310.212682485	0.468019000	-3.59	0.467098546	 -154.000	 -1.509
1656006289.8440931	2.85400	2349.865000000	-10.34	2311.717844825	0.468325000	-3.59	0.467407016	 -154.000	 -1.649
1656006291.0435491	2.83400	2340.095000000	-10.33	2302.194350467	0.466188000	-3.58	0.465277258	 -154.000	 -1.538
1656006293.3214769	2.82900	2337.350000000	-10.32	2299.537670540	0.465822000	-3.58	0.464911973	 -154.000	 0.472
1656006294.5551870	2.82000	2330.635000000	-10.31	2292.975012366	0.464479000	-3.57	0.463577664	 -154.000	 -1.792
1656006296.5000031	2.80900	2327.585000000	-10.31	2289.974296344	0.463808000	-3.57	0.462907966	 -154.000	 -1.310
1656006297.7476759	2.80700	2325.145000000	-10.31	2287.617305822	0.463442000	-3.56	0.462545696	 -154.000	 -0.015
1656006298.9608030	2.80400	2323.315000000	-10.31	2285.816841907	0.463015000	-3.56	0.462119522	 -154.000	 -1.170
1656006300.1502731	2.78900	2314.465000000	-10.30	2277.153037490	0.461306000	-3.55	0.460419823	 -154.000	 0.118
1656006301.8577230	2.78100	2310.800000000	-10.30	2273.590385254	0.460573000	-3.55	0.459688231	 -154.000	 0.725
1656006303.0489011	2.77300	2306.225000000	-10.29	2269.132207120	0.459658000	-3.55	0.458774988	 -154.000	 -0.479
1656006305.4594800	2.76300	2300.730000000	-10.28	2263.768612806	0.458437000	-3.54	0.457562273	 -154.000	 0.461
1656006306.6522961	2.76100	2294.625000000	-10.28	2257.804576496	0.457277000	-3.54	0.456404486	 -154.000	 -0.913
1656006308.4441669	2.75200	2291.880000000	-10.27	2255.146434215	0.456728000	-3.53	0.455862430	 -154.000	 -0.366
1656006309.6529429	2.75200	2289.135000000	-10.27	2252.445430252	0.456301000	-3.53	0.455436239	 -154.000	 0.805
1656006310.8547411	2.74600	2283.945000000	-10.27	2247.381251560	0.455263000	-3.52	0.454403137	 -154.000	 -0.369
1656006312.0539000	2.73600	2278.145000000	-10.26	2241.716608629	0.454042000	-3.52	0.453187362	 -154.000	 -0.546
1656006314.3753550	2.72100	2270.515000000	-10.25	2234.250953011	0.452517000	-3.51	0.451668136	 -154.000	 0.574
1656006315.5655341	2.71700	2265.330000000	-10.25	2229.190983115	0.451357000	-3.50	0.450513203	 -154.000	 0.384
1656006317.5123470	2.70700	2261.055000000	-10.24	2225.026295210	0.450563000	-3.50	0.449723569	 -154.000	 0.330
1656006318.7596650	2.70300	2259.225000000	-10.24	2223.225455283	0.450197000	-3.50	0.449355372	 -154.000	 -1.252
1656006319.9658041	2.69600	2251.900000000	-10.24	2216.059093062	0.448793000	-3.50	0.447956867	 -154.000	 0.467
1656006321.1682479	2.67700	2241.830000000	-10.22	2206.274411628	0.446718000	-3.48	0.445894273	 -154.000	 0.734
1656006322.8690610	2.68600	2243.355000000	-10.22	2207.733538893	0.447084000	-3.49	0.446256754	 -154.000	 -1.445
1656006324.0678771	2.66700	2234.200000000	-10.22	2198.765423988	0.445375000	-3.48	0.444553750	 -154.000	 -1.666
1656006326.4733710	2.66000	2227.795000000	-10.21	2192.544729600	0.443972000	-3.47	0.443158971	 -154.000	 -0.004
1656006327.6659250	2.65700	2224.740000000	-10.21	2189.538068687	0.443300000	-3.47	0.442488202	 -154.000	 -0.278
1656006328.8617411	2.65200	2219.250000000	-10.20	2184.176102986	0.442324000	-3.46	0.441519583	 -154.000	 0.674
1656006330.0678799	2.63700	2207.040000000	-10.19	2172.240882865	0.439882000	-3.44	0.439087569	 -154.000	 -0.751
1656006332.3883390	2.62800	2203.075000000	-10.18	2168.379195283	0.439089000	-3.44	0.438298761	 -154.000	 0.324
1656006333.5791650	2.63200	2200.325000000	-10.18	2165.672504504	0.438478000	-3.44	0.437688860	 -154.000	 0.620
1656006335.3837171	2.61200	2187.815000000	-10.16	2153.480917602	0.435976000	-3.43	0.435196829	 -154.000	 -1.622
1656006336.5725410	2.60600	2183.235000000	-10.16	2148.972793011	0.435122000	-3.42	0.434347076	 -154.000	 -0.182
1656006338.5153551	2.60000	2177.135000000	-10.16	2143.008742904	0.433901000	-3.42	0.433128251	 -154.000	 -1.172
1656006339.7656710	2.59200	2171.335000000	-10.15	2137.339747062	0.432680000	-3.41	0.431914822	 -154.000	 0.817
1656006340.9694660	2.59800	2172.860000000	-10.15	2138.840871078	0.432924000	-3.41	0.432158390	 -154.000	 -1.308
1656006342.1662760	2.58500	2160.960000000	-10.14	2127.206909042	0.430666000	-3.40	0.429909736	 -154.000	 -1.287
1656006343.8650930	2.56700	2148.140000000	-10.12	2114.705858001	0.428164000	-3.39	0.427414783	 -154.000	 0.501
1656006345.0625551	2.56100	2139.595000000	-10.12	2106.333219776	0.426394000	-3.37	0.425655780	 -154.000	 0.193
1656006347.4435680	2.55800	2135.325000000	-10.11	2102.168864297	0.425539000	-3.37	0.424802261	 -154.000	 -1.793
1656006348.6712940	2.54900	2125.255000000	-10.10	2092.294281358	0.423586000	-3.36	0.422857851	 -154.000	 -0.031
1656006350.4581790	2.54800	2124.340000000	-10.10	2091.393472153	0.423281000	-3.37	0.422550775	 -154.000	 -1.464
1656006351.6692979	2.53300	2110.300000000	-10.09	2077.687425401	0.420656000	-3.35	0.419938042	 -154.000	 0.847
1656006353.4714949	2.52900	2103.585000000	-10.08	2071.114765651	0.419130000	-3.34	0.418419764	 -154.000	 0.083
1656006354.6729350	2.52000	2095.955000000	-10.07	2063.640943906	0.417665000	-3.33	0.416959789	 -154.000	 -0.220
1656006355.8681030	2.51200	2088.325000000	-10.06	2056.205039231	0.416140000	-3.33	0.415437364	 -154.000	 -0.468
1656006357.0708981	2.50900	2079.475000000	-10.06	2047.529193489	0.414248000	-3.32	0.413553589	 -154.000	 -1.499
1656006359.5223680	2.49000	2063.915000000	-10.04	2032.321349930	0.411379000	-3.30	0.410696858	 -154.000	 0.437
1656006360.7676899	2.49600	2065.745000000	-10.04	2034.123336964	0.411745000	-3.31	0.411059767	 -154.000	 -0.138
1656006361.9754710	2.49000	2057.200000000	-10.03	2025.746679203	0.409975000	-3.29	0.409300120	 -154.000	 0.398
1656006363.1752729	2.47600	2041.940000000	-10.01	2010.831643122	0.406923000	-3.28	0.406258023	 -154.000	 0.537
1656006364.8730910	2.47400	2040.415000000	-10.01	2009.329876050	0.406618000	-3.28	0.405953522	 -154.000	 0.415
1656006366.0775390	2.46400	2026.375000000	-10.00	1995.577526493	0.403933000	-3.26	0.403277735	 -154.000	 -1.719
1656006368.4881120	2.44800	2007.760000000	-9.98	1977.391338060	0.400026000	-3.25	0.399384209	 -154.000	 0.823
1656006369.6769409	2.43600	1998.910000000	-9.97	1968.711459022	0.398439000	-3.23	0.397804471	 -154.000	 0.274
1656006370.8800790	2.43600	1995.555000000	-9.97	1965.443321304	0.397646000	-3.23	0.397012734	 -154.000	 -1.537
1656006372.0768960	2.42100	1972.665000000	-9.95	1943.005874198	0.393129000	-3.21	0.392512183	 -154.000	 -0.901
1656006374.3987110	2.42900	1983.650000000	-9.96	1953.753899680	0.395327000	-3.22	0.394704414	 -154.000	 -0.140
1656006375.5903230	2.41400	1965.645000000	-9.94	1936.126969737	0.391726000	-3.19	0.391118256	 -154.000	 0.196
1656006377.3977139	2.40700	1954.050000000	-9.92	1924.811984119	0.389284000	-3.19	0.388682313	 -154.000	 -0.397
1656006378.5885310	2.40500	1941.235000000	-9.91	1912.258759377	0.386599000	-3.17	0.386005954	 -154.000	 -1.646
1656006380.5303690	2.39100	1924.450000000	-9.89	1895.828280840	0.383486000	-3.16	0.382902168	 -154.000	 -1.746
1656006381.7786820	2.38300	1913.155000000	-9.89	1884.735681857	0.381289000	-3.15	0.380712909	 -154.000	 0.330
1656006382.9814761	2.37800	1904.610000000	-9.88	1876.386074318	0.379580000	-3.14	0.379010852	 -154.000	 -1.675
1656006384.1766520	2.37200	1889.965000000	-9.86	1862.059840812	0.376528000	-3.12	0.375969885	 -154.000	 -0.238
1656006385.8771150	2.37400	1890.575000000	-9.86	1862.626928362	0.376833000	-3.13	0.376272283	 -154.000	 -0.848
1656006387.0775559	2.35900	1862.190000000	-9.83	1834.828322108	0.371157000	-3.10	0.370615275	 -154.000	 -1.454
1656006389.4864869	2.35000	1846.935000000	-9.82	1819.863494991	0.368227000	-3.08	0.367695782	 -154.000	 0.739
1656006390.6882880	2.33500	1822.825000000	-9.79	1796.269455810	0.363344000	-3.05	0.362829992	 -154.000	 0.128
1656006392.5104280	2.33800	1827.705000000	-9.80	1801.045801186	0.364199000	-3.07	0.363677680	 -154.000	 -1.371
1656006393.7001581	2.32500	1798.105000000	-9.76	1772.069462660	0.358461000	-3.03	0.357959870	 -154.000	 0.607
1656006395.4971149	2.32300	1797.190000000	-9.76	1771.167711339	0.357973000	-3.02	0.357474531	 -154.000	 -0.108
1656006396.6879389	2.30800	1764.230000000	-9.73	1738.841342094	0.351809000	-3.00	0.351326858	 -154.000	 -1.439
1656006397.8881021	2.31400	1770.640000000	-9.74	1745.127744041	0.353151000	-3.00	0.352667019	 -154.000	 -0.974
1656006399.0885410	2.29400	1732.490000000	-9.70	1707.741777895	0.345156000	-2.96	0.344696125	 -154.000	 0.261
1656006401.5403669	2.29000	1716.625000000	-9.68	1692.194150417	0.342287000	-2.94	0.341836480	 -154.000	 0.072
1656006402.7846899	2.27800	1701.975000000	-9.67	1677.812536017	0.339052000	-2.93	0.338609372	 -154.000	 -1.540
1656006403.9978189	2.27900	1697.090000000	-9.66	1673.026717606	0.338381000	-2.92	0.337941056	 -154.000	 0.653
1656006405.1936209	2.26300	1659.860000000	-9.62	1636.499287453	0.330812000	-2.88	0.330394170	 -154.000	 -1.189
1656006406.9000721	2.26200	1650.095000000	-9.61	1626.929460647	0.328798000	-2.87	0.328384442	 -154.000	 0.560
1656006408.0938840	2.25000	1623.545000000	-9.58	1600.893917691	0.323488000	-2.85	0.323087887	 -154.000	 0.628
1656006410.5001221	2.24500	1611.340000000	-9.57	1588.915338647	0.321047000	-2.84	0.320653242	 -154.000	 -0.042
1656006411.6952960	2.23500	1589.975000000	-9.55	1567.930637238	0.316835000	-2.81	0.316452951	 -154.000	 -0.753
1656006413.5170801	2.23000	1565.255000000	-9.52	1543.689159383	0.312014000	-2.78	0.311645742	 -154.000	 0.468
1656006414.7069070	2.21700	1546.945000000	-9.50	1525.711751483	0.307985000	-2.77	0.307626182	 -154.000	 -1.710
1656006415.8977339	2.20800	1518.565000000	-9.47	1497.852375076	0.302675000	-2.74	0.302329975	 -154.000	 0.472
1656006417.0925479	2.20000	1486.520000000	-9.44	1466.397904497	0.296450000	-2.71	0.296119439	 -154.000	 0.229
1656006419.4117260	2.19100	1453.255000000	-9.40	1433.732640616	0.289431000	-2.66	0.289118205	 -154.000	 -0.285
1656006420.6021900	2.19300	1424.570000000	-9.38	1405.530339237	0.283205000	-2.64	0.282904422	 -154.000	 -0.249
1656006422.5503550	2.18500	1419.075000000	-9.37	1400.157179873	0.282778000	-2.63	0.282479238	 -154.000	 -0.035
1656006423.7946820	2.16800	1364.145000000	-9.31	1346.191198297	0.271669000	-2.58	0.271393621	 -154.000	 -1.422
1656006424.9968340	2.17200	1376.350000000	-9.32	1358.165577615	0.274172000	-2.59	0.273891493	 -154.000	 -0.024
1656006426.1976349	2.15500	1313.790000000	-9.26	1296.676457217	0.262148000	-2.52	0.261894486	 -154.000	 -1.515
1656006428.5882659	2.15000	1289.680000000	-9.23	1272.988980159	0.256533000	-2.50	0.256289618	 -154.000	 -0.357
1656006429.7966840	2.14400	1258.250000000	-9.19	1242.092282122	0.250673000	-2.46	0.250441987	 -154.000	 0.940
1656006430.9998310	2.13900	1226.505000000	-9.16	1210.877797980	0.244508000	-2.43	0.244288130	 -154.000	 0.574
1656006432.1996241	2.13000	1183.170000000	-9.11	1168.252254364	0.235780000	-2.38	0.235576271	 -154.000	 0.537
1656006434.5250821	2.11800	1136.175000000	-9.05	1122.018788893	0.226441000	-2.33	0.226254110	 -154.000	 -1.473
1656006435.7129130	2.10800	1087.040000000	-9.01	1073.638920225	0.216554000	-2.27	0.216383464	 -154.000	 -1.610
1656006437.5034981	2.10800	1080.325000000	-9.00	1067.024406553	0.215272000	-2.27	0.215102474	 -154.000	 -1.705
1656006438.7023029	2.09900	1027.530000000	-8.93	1015.063887704	0.204652000	-2.21	0.204499229	 -154.000	 -1.721
1656006440.5054929	2.09200	986.945000000	-8.89	975.099329976	0.196351000	-2.17	0.196210711	 -154.000	 0.231
1656006441.7029440	2.08500	939.945000000	-8.83	928.799869025	0.187623000	-2.12	0.187494822	 -154.000	 -1.558
1656006443.6281750	2.07500	893.255000000	-8.78	882.792349687	0.177613000	-2.05	0.177499104	 -154.000	 0.435
1656006444.8166449	2.07000	880.740000000	-8.76	870.466119349	0.175843000	-2.05	0.175730239	 -154.000	 -0.942
1656006446.1474540	2.06000	817.265000000	-8.69	807.887329633	0.162660000	-1.97	0.162563471	 -154.000	 -1.437
1656006447.3382881	2.06000	791.020000000	-8.66	781.993458516	0.157899000	-1.94	0.157808123	 -154.000	 -0.528
1656006449.3136561	2.04700	729.985000000	-8.59	721.803977739	0.145509000	-1.88	0.145430843	 -154.000	 -1.653
1656006450.5118201	2.03800	687.870000000	-8.54	680.246759787	0.135743000	-1.81	0.135675123	 -154.000	 -1.154
1656006452.4014280	2.03100	618.900000000	-8.45	612.175164800	0.122620000	-1.75	0.122563070	 -154.000	 0.231
1656006453.6122000	2.02000	567.020000000	-8.38	560.971845611	0.112549000	-1.68	0.112500621	 -154.000	 0.063
1656006455.4556410	2.01800	568.850000000	-8.39	562.764958547	0.113099000	-1.69	0.113050037	 -154.000	 0.430
1656006456.6464670	2.00800	488.283500000	-8.28	483.193690708	0.097229500	-1.59	0.097192064	 -154.000	 0.625
1656006462.5593481	1.97400	332.033500000	-8.08	328.740588122	0.065491200	-1.39	0.065472039	 -154.000	 0.590
1656006464.3579099	1.97200	322.268000000	-8.07	319.076675940	0.063812700	-1.39	0.063793868	 -154.000	 -0.502
1656006465.5497401	1.96500	290.223500000	-8.02	287.383534515	0.057342800	-1.35	0.057326883	 -154.000	 -0.838
1656006467.3645420	1.95600	267.945500000	-8.00	265.335268777	0.053192400	-1.31	0.053178540	 -154.000	 -1.344
1656006468.5577250	1.94800	240.785000000	-7.96	238.467361063	0.047912800	-1.28	0.047900882	 -154.000	 0.454
1656006474.5394149	1.91700	171.624500000	-7.86	170.012118070	0.034057900	-1.19	0.034050579	 -154.000	 0.450
1656006476.3825030	1.91300	169.145000000	-7.85	167.560753424	0.033531400	-1.19	0.033524119	 -154.000	 -0.091
1656006477.6243150	1.90800	154.305000000	-7.83	152.866359577	0.030685500	-1.16	0.030679233	 -154.000	 -1.255
1656006479.4377129	1.90200	150.376000000	-7.84	148.971844897	0.029876800	-1.19	0.029870378	 -154.000	 -1.443
1656006480.6291809	1.89400	135.041000000	-7.79	133.795414623	0.026825100	-1.17	0.026819507	 -154.000	 -0.884
1656006482.4387081	1.88500	129.547500000	-7.78	128.356259172	0.025818000	-1.12	0.025813050	 -154.000	 -0.453
1656006483.6315401	1.87300	118.599500000	-7.80	117.502198506	0.023613100	-1.12	0.023608621	 -154.000	 -0.419
1656006485.4343741	1.86800	114.060000000	-7.78	113.011172899	0.022735700	-1.13	0.022731294	 -154.000	 -1.537
1656006486.6331789	1.85800	104.905000000	-7.76	103.944810723	0.020813100	-1.12	0.020809152	 -154.000	 0.020
1656006488.5400951	1.85800	106.125500000	-7.76	105.154139558	0.021125900	-1.14	0.021121718	 -154.000	 0.436
1656006489.7329149	1.84500	97.962000000	-7.76	97.063974265	0.019523700	-1.15	0.019519754	 -154.000	 -0.165
1656006495.6814179	1.80900	81.253500000	-7.72	80.516667233	0.016166800	-1.07	0.016163960	 -154.000	 -1.011
1656006497.5454550	1.81100	78.316500000	-7.73	77.605198485	0.015609800	-1.06	0.015607119	 -154.000	 -0.830
1656006498.7392590	1.79400	73.528500000	-7.71	72.863787626	0.014652300	-1.06	0.014649811	 -154.000	 -0.887
1656006500.5294919	1.79400	72.899000000	-7.70	72.242025181	0.014526400	-1.13	0.014523585	 -154.000	 0.813
1656006501.7289381	1.78400	68.512500000	-7.70	67.894095439	0.013630000	-1.09	0.013627525	 -154.000	 -1.080
1656006503.5311329	1.78100	66.834000000	-7.68	66.234492961	0.013336200	-1.03	0.013334037	 -154.000	 -1.496
1656006504.7392681	1.77300	63.477000000	-7.69	62.905827483	0.012661000	-1.06	0.012658850	 -154.000	 -0.750
1656006506.5301411	1.76600	60.215500000	-7.71	59.671139814	0.012001100	-1.02	0.011999198	 -154.000	 0.387
1656006507.7322891	1.75800	57.831000000	-7.70	57.309819863	0.011516600	-1.08	0.011514554	 -154.000	 -1.072
1656006509.6268859	1.75200	55.714000000	-7.68	55.214240369	0.011116100	-1.08	0.011114125	 -154.000	 -1.462
1656006510.8306761	1.74600	53.635000000	-7.71	53.150128853	0.010692700	-1.09	0.010690758	 -154.000	 0.703
1656006512.3326731	1.73600	50.831000000	-7.67	50.376462954	0.010147200	-1.09	0.010145357	 -154.000	 -1.227
1656006513.5408070	1.73300	48.981000000	-7.70	48.538889819	0.009609280	-1.03	0.009607721	 -154.000	 0.331
1656006519.5218689	1.70100	40.035550000	-7.69	39.675306040	0.007980410	-1.03	0.007979131	 -154.000	 -0.878
1656006521.4227951	1.69100	38.290150000	-7.67	37.947219537	0.007635150	-0.95	0.007634105	 -154.000	 -0.626
1656006522.6411929	1.68900	37.918250000	-7.69	37.577057721	0.007572200	-1.03	0.007570972	 -154.000	 0.417
1656006524.4567161	1.67800	35.629400000	-7.65	35.312289339	0.007104900	-1.10	0.007103581	 -154.000	 -1.018
1656006525.6485391	1.67500	34.580400000	-7.72	34.267300243	0.006908450	-1.05	0.006907290	 -154.000	 -1.184
1656006527.4433899	1.66500	33.588550000	-7.67	33.288197060	0.006706270	-1.13	0.006704970	 -154.000	 -1.500
1656006528.6402020	1.65600	31.442800000	-7.70	31.158992360	0.006288560	-1.02	0.006287564	 -154.000	 0.040
1656006530.5570991	1.64900	30.031350000	-7.70	29.760703753	0.005989100	-1.00	0.005988184	 -154.000	 -0.625
1656006531.7509100	1.64000	28.333800000	-7.64	28.082411377	0.005668670	-1.08	0.005667663	 -154.000	 -1.473
1656006533.5351610	1.63500	27.752050000	-7.71	27.501165907	0.005558040	-1.10	0.005557019	 -154.000	 -1.330
1656006534.7449279	1.63200	27.218000000	-7.69	26.973471015	0.005443600	-1.04	0.005442707	 -154.000	 -0.211
1656006535.9487181	1.62000	26.025900000	-7.69	25.792080949	0.005209000	-1.10	0.005208044	 -154.000	 -0.934
1656006537.1455290	1.61000	24.604950000	-7.71	24.382516322	0.004911450	-1.03	0.004910653	 -154.000	 -1.386
1656006543.5384870	1.58400	21.338600000	-7.70	21.146293893	0.004271540	-0.98	0.004270910	 -154.000	 0.175
1656006545.4068611	1.57800	20.518450000	-7.73	20.332093299	0.004105600	-1.05	0.004104911	 -154.000	 -0.398
1656006546.6581700	1.57300	20.260950000	-7.61	20.082594156	0.004053150	-1.00	0.004052530	 -154.000	 0.797
1656006548.4144890	1.56600	19.202300000	-7.65	19.031394679	0.003834740	-1.01	0.003834147	 -154.000	 0.037
1656006549.6541829	1.55900	18.372600000	-7.72	18.205991378	0.003680240	-1.03	0.003679650	 -154.000	 0.287
1656006551.3889141	1.55300	17.833800000	-7.76	17.670316084	0.003578200	-0.96	0.003577698	 -154.000	 0.267
1656006552.5797369	1.54700	17.261600000	-7.72	17.105066282	0.003430380	-1.22	0.003429597	 -154.000	 -1.372
1656006554.5125861	1.54000	16.422350000	-7.54	16.280504475	0.003314030	-0.99	0.003313535	 -154.000	 -1.585
1656006555.7582719	1.53200	15.668950000	-7.57	15.532533743	0.003150950	-1.01	0.003150462	 -154.000	 -1.372
1656006557.6552160	1.52700	15.239800000	-7.69	15.102670726	0.003060360	-1.00	0.003059898	 -154.000	 -1.765
1656006558.8775959	1.52200	14.872650000	-7.62	14.741314293	0.002998370	-0.94	0.002997965	 -154.000	 -0.894
1656006560.2991641	1.51700	14.438700000	-7.78	14.305930406	0.002910630	-1.03	0.002910163	 -154.000	 0.296
1656006561.4909849	1.51000	14.066750000	-7.69	13.940175949	0.002822890	-1.01	0.002822448	 -154.000	 0.264
1656006563.3001630	1.50600	13.771150000	-7.49	13.653524061	0.002771390	-1.27	0.002770713	 -154.000	 -1.185
1656006564.4936280	1.50200	13.437350000	-7.64	13.318128543	0.002693190	-0.94	0.002692831	 -154.000	 0.329
1656006566.4308131	1.49800	13.241850000	-7.72	13.121768662	0.002676980	-1.03	0.002676551	 -154.000	 -0.149
1656006567.6611810	1.49400	12.931900000	-7.57	12.819312916	0.002611180	-0.91	0.002610854	 -154.000	 -1.620
1656006569.4397931	1.49200	12.798400000	-7.62	12.685381344	0.002574940	-1.20	0.002574375	 -154.000	 0.367
1656006570.6601851	1.49000	12.683950000	-7.66	12.570882752	0.002537740	-0.86	0.002537455	 -154.000	 0.280
1656006572.3979161	1.48900	12.664850000	-7.67	12.551599355	0.002560630	-1.10	0.002560155	 -154.000	 0.221
1656006573.5907371	1.48700	12.426450000	-7.75	12.312887029	0.002493870	-1.04	0.002493456	 -154.000	 -0.507
1656006575.3835931	1.48600	12.421700000	-7.74	12.308531086	0.002493870	-0.87	0.002493583	 -154.000	 -0.705
1656006576.5764141	1.48500	12.331100000	-7.53	12.224761306	0.002478610	-0.85	0.002478340	 -154.000	 -1.582
1656006578.4916720	1.48400	12.250000000	-7.55	12.143687187	0.002457630	-0.97	0.002457281	 -154.000	 0.293
1656006579.6844831	1.48300	12.087900000	-7.65	11.980314636	0.002438560	-0.95	0.002438222	 -154.000	 -0.066
1656006581.4963009	1.48100	12.111750000	-7.64	12.004289788	0.002445240	-1.11	0.002444781	 -154.000	 -0.170
1656006582.6874990	1.48000	11.978200000	-7.72	11.869577845	0.002408040	-1.06	0.002407626	 -154.000	 0.691
1656006584.5545039	1.47900	11.887600000	-7.73	11.779464640	0.002398510	-1.21	0.002397973	 -154.000	 -1.094
1656006585.7649219	1.47700	11.825650000	-7.78	11.716908441	0.002387060	-0.98	0.002386712	 -154.000	 -1.378
1656006587.5724571	1.47600	11.792250000	-7.63	11.687788586	0.002375620	-0.87	0.002375346	 -154.000	 -1.729
1656006588.7712641	1.47500	11.615850000	-7.54	11.515519880	0.002355590	-0.89	0.002355303	 -154.000	 0.457
1656006590.5661211	1.47400	11.601500000	-7.54	11.501134429	0.002334610	-1.11	0.002334172	 -154.000	 0.269
1656006591.7669220	1.47300	11.582450000	-7.54	11.482408368	0.002338420	-1.29	0.002337827	 -154.000	 0.940
1656006592.9710870	1.47200	11.520450000	-7.58	11.419833270	0.002331750	-1.26	0.002331186	 -154.000	 -0.784
1656006594.1705141	1.47000	11.410800000	-7.65	11.309240997	0.002297420	-0.90	0.002297137	 -154.000	 0.387
1656006596.4105411	1.46900	11.425100000	-7.64	11.323572932	0.002303140	-1.04	0.002302758	 -154.000	 0.623
1656006597.6023631	1.46700	11.253450000	-7.73	11.151241704	0.002267850	-1.11	0.002267424	 -154.000	 0.933
1656006599.4996641	1.46600	11.224800000	-7.78	11.121424395	0.002263080	-0.50	0.002262992	 -154.000	 0.811
1656006600.6931250	1.46500	11.072250000	-7.49	10.977827811	0.002243060	-0.92	0.002242772	 -154.000	 0.561
1656006602.5581551	1.46400	11.086550000	-7.81	10.983817847	0.002244010	-0.94	0.002243711	 -154.000	 -1.597
1656006603.7689281	1.46300	11.053150000	-7.71	10.953227309	0.002233520	-0.92	0.002233230	 -154.000	 0.328
1656006604.9720809	1.46200	10.981650000	-7.48	10.888150238	0.002215400	-1.15	0.002214952	 -154.000	 0.142
1656006606.1718760	1.46100	11.034100000	-7.81	10.931696871	0.002214450	-1.14	0.002214012	 -154.000	 -0.784
1656006608.4847119	1.46000	10.924400000	-7.73	10.825026373	0.002196330	-1.11	0.002195918	 -154.000	 -1.610
1656006609.6795421	1.45900	10.881500000	-7.55	10.787213588	0.002194420	-0.98	0.002194100	 -154.000	 -0.946
1656006611.4757390	1.45800	10.805200000	-7.60	10.710232266	0.002187740	-1.10	0.002187338	 -154.000	 0.574
1656006612.6721940	1.45700	10.891050000	-7.54	10.796830593	0.002187740	-0.94	0.002187444	 -154.000	 -0.557
1656006614.4069221	1.45600	10.719350000	-7.67	10.623496255	0.002167720	-0.88	0.002167463	 -154.000	 -0.702
1656006615.5987480	1.45500	10.628750000	-7.73	10.532215477	0.002156270	-0.95	0.002155971	 -154.000	 -1.141
