------------------------------------------------------------------------------------------------------------------
time (s)	 T (K)	 R1 (Ohm)	 Theta1 (deg.)	 X1 (Ohm)	 R2 (Ohm)	 Theta2 (deg.)	 X2 (Ohm)	 Vgate (V) 	 Ileak (nA)
------------------------------------------------------------------------------------------------------------------

1656029197.7649901	9.99200	54.607500000	-9.52	53.855126335	0.021843100	-2.75	0.021817982	 6.000	 -0.361
1656029203.0688679	9.98900	109.215500000	-9.49	107.720190935	0.054609500	-2.75	0.054546702	 6.000	 0.790
1656029208.3813519	9.98300	273.047500000	-9.49	269.309107538	0.109219000	-2.75	0.109093405	 6.000	 -0.767
1656029213.6676221	9.97200	546.095000000	-9.49	538.618215077	0.218438000	-2.74	0.218187905	 6.000	 0.242
1656029219.4698150	9.95700	1092.190000000	-9.49	1077.236430154	0.302217000	-2.75	0.301869469	 6.000	 -0.602
1656029223.3345211	9.95000	1516.580000000	-9.49	1495.815952574	0.302217000	-2.74	0.301870984	 6.000	 -0.394
1656029224.5227079	9.94700	1516.580000000	-9.49	1495.815952574	0.302187000	-2.75	0.301839503	 6.000	 1.286
1656029225.7215090	9.94200	1516.580000000	-9.49	1495.815952574	0.302187000	-2.75	0.301839503	 6.000	 1.198
1656029227.4189961	9.93800	1516.430000000	-9.49	1495.668006279	0.302187000	-2.75	0.301839503	 6.000	 -1.031
1656029228.6148000	9.93400	1516.430000000	-9.49	1495.668006279	0.302187000	-2.75	0.301839503	 6.000	 0.210
1656029230.4200060	9.93000	1516.430000000	-9.49	1495.668006279	0.302187000	-2.74	0.301841019	 6.000	 0.280
1656029231.6168029	9.92500	1516.430000000	-9.49	1495.668006279	0.302156000	-2.74	0.301810054	 6.000	 -0.273
1656029233.4180350	9.92300	1516.430000000	-9.49	1495.668006279	0.302156000	-2.75	0.301808539	 6.000	 -0.792
1656029234.6144741	9.91600	1516.275000000	-9.49	1495.515128440	0.302156000	-2.74	0.301810054	 6.000	 1.452
1656029236.8169601	9.91200	1516.275000000	-9.49	1495.515128440	0.302156000	-2.75	0.301808539	 6.000	 0.057
1656029238.0194011	9.90700	1516.275000000	-9.49	1495.515128440	0.302156000	-2.75	0.301808539	 6.000	 0.809
1656029239.3428769	9.90300	1516.275000000	-9.49	1495.515128440	0.302126000	-2.74	0.301780089	 6.000	 1.273
1656029240.5340590	9.89800	1516.275000000	-9.49	1495.515128440	0.302126000	-2.75	0.301778573	 6.000	 0.968
1656029242.3199461	9.89300	1516.125000000	-9.49	1495.367182145	0.302095000	-2.75	0.301747609	 6.000	 0.736
1656029243.5171170	9.88800	1516.125000000	-9.49	1495.367182145	0.302095000	-2.75	0.301747609	 6.000	 0.517
1656029245.3183320	9.88300	1515.970000000	-9.49	1495.214304306	0.302095000	-2.75	0.301747609	 6.000	 -1.048
1656029246.5167630	9.87700	1515.970000000	-9.49	1495.214304306	0.302095000	-2.74	0.301749124	 6.000	 0.705
1656029248.3173161	9.87400	1515.970000000	-9.49	1495.240475884	0.302095000	-2.74	0.301749124	 6.000	 -0.927
1656029249.5187731	9.86700	1515.970000000	-9.49	1495.214304306	0.302095000	-2.75	0.301747609	 6.000	 1.094
1656029251.3183310	9.86200	1515.820000000	-9.49	1495.066358010	0.302065000	-2.74	0.301719158	 6.000	 -0.805
1656029252.5207729	9.85500	1515.820000000	-9.49	1495.066358010	0.302034000	-2.75	0.301686679	 6.000	 -0.609
1656029254.7222550	9.85100	1515.820000000	-9.49	1495.066358010	0.302034000	-2.75	0.301686679	 6.000	 -1.153
1656029255.9207189	9.84500	1515.665000000	-9.49	1494.913480172	0.302034000	-2.74	0.301688194	 6.000	 0.326
1656029257.6195519	9.84100	1515.665000000	-9.49	1494.913480172	0.302034000	-2.75	0.301686679	 6.000	 1.075
1656029258.8203549	9.83400	1515.665000000	-9.49	1494.913480172	0.302034000	-2.75	0.301686679	 6.000	 -1.113
1656029260.5184700	9.82900	1515.665000000	-9.49	1494.913480172	0.302004000	-2.75	0.301656714	 6.000	 0.798
1656029261.7182729	9.82400	1515.665000000	-9.49	1494.913480172	0.302034000	-2.74	0.301688194	 6.000	 -0.692
1656029263.4220901	9.81900	1515.665000000	-9.49	1494.913480172	0.302004000	-2.75	0.301656714	 6.000	 -0.162
1656029264.6218841	9.81300	1515.510000000	-9.49	1494.760602333	0.302004000	-2.75	0.301656714	 6.000	 0.034
1656029266.3232601	9.80800	1515.510000000	-9.49	1494.760602333	0.301973000	-2.75	0.301625749	 6.000	 -0.397
1656029267.5208220	9.79800	1515.360000000	-9.49	1494.612656037	0.301973000	-2.75	0.301625749	 6.000	 1.465
1656029269.7199559	9.79400	1515.360000000	-9.49	1494.612656037	0.301973000	-2.75	0.301625749	 6.000	 -0.023
1656029270.9270930	9.78600	1515.360000000	-9.49	1494.612656037	0.301973000	-2.75	0.301625749	 6.000	 1.274
1656029272.6192329	9.78100	1515.360000000	-9.49	1494.612656037	0.301912000	-2.75	0.301564820	 6.000	 0.076
1656029273.8220291	9.77500	1515.360000000	-9.49	1494.612656037	0.301973000	-2.75	0.301625749	 6.000	 1.016
1656029275.5205059	9.77100	1515.360000000	-9.49	1494.612656037	0.301943000	-2.74	0.301597298	 6.000	 -0.758
1656029276.7226470	9.76400	1515.205000000	-9.49	1494.459778199	0.301912000	-2.74	0.301566334	 6.000	 1.061
1656029278.4271171	9.76000	1515.055000000	-9.49	1494.311831903	0.301912000	-2.75	0.301564820	 6.000	 0.144
1656029279.6259160	9.74900	1515.055000000	-9.49	1494.311831903	0.301912000	-2.74	0.301566334	 6.000	 -1.157
1656029281.8227880	9.74400	1515.055000000	-9.49	1494.311831903	0.301912000	-2.75	0.301564820	 6.000	 1.024
1656029283.0265820	9.73700	1515.055000000	-9.49	1494.311831903	0.301882000	-2.75	0.301534854	 6.000	 -1.029
1656029284.7270529	9.73300	1515.055000000	-9.49	1494.311831903	0.301912000	-2.75	0.301564820	 6.000	 1.290
1656029285.9262240	9.72600	1514.900000000	-9.49	1494.158954064	0.301882000	-2.75	0.301534854	 6.000	 -0.312
1656029287.6253350	9.72100	1514.900000000	-9.49	1494.158954064	0.301851000	-2.75	0.301503890	 6.000	 -1.171
1656029288.8225040	9.71300	1514.900000000	-9.49	1494.158954064	0.301851000	-2.74	0.301505403	 6.000	 -0.785
1656029290.5276821	9.70700	1514.750000000	-9.49	1494.011007769	0.301851000	-2.74	0.301505403	 6.000	 1.339
1656029291.7297630	9.70000	1514.750000000	-9.49	1494.011007769	0.301851000	-2.75	0.301503890	 6.000	 0.965
1656029293.4408441	9.69600	1514.750000000	-9.49	1494.011007769	0.301851000	-2.75	0.301503890	 6.000	 1.346
1656029294.6306760	9.68800	1514.750000000	-9.49	1494.011007769	0.301821000	-2.75	0.301473924	 6.000	 1.064
1656029296.4332421	9.68300	1514.595000000	-9.49	1493.858129930	0.301821000	-2.74	0.301475438	 6.000	 1.095
1656029297.6296849	9.67500	1514.595000000	-9.49	1493.858129930	0.301821000	-2.75	0.301473924	 6.000	 -1.115
1656029299.4332399	9.67000	1514.595000000	-9.49	1493.858129930	0.301790000	-2.74	0.301444473	 6.000	 -0.380
1656029300.6276979	9.66300	1514.595000000	-9.49	1493.884277770	0.301790000	-2.74	0.301444473	 6.000	 1.097
1656029302.4229159	9.65600	1514.445000000	-9.49	1493.710183635	0.301760000	-2.75	0.301412994	 6.000	 -1.136
1656029303.6350341	9.64800	1514.445000000	-9.49	1493.736328885	0.301760000	-2.74	0.301414508	 6.000	 1.127
1656029305.3441360	9.64300	1514.445000000	-9.49	1493.710183635	0.301760000	-2.74	0.301414508	 6.000	 -0.397
1656029306.5349619	9.63600	1514.445000000	-9.49	1493.710183635	0.301729000	-2.75	0.301382030	 6.000	 -0.754
1656029308.3361609	9.62900	1514.290000000	-9.49	1493.557305796	0.301729000	-2.75	0.301382030	 6.000	 -0.266
1656029309.5363059	9.61900	1514.140000000	-9.49	1493.409359500	0.301729000	-2.74	0.301383543	 6.000	 1.364
1656029311.7343960	9.61400	1514.140000000	-9.49	1493.409359500	0.301699000	-2.74	0.301353578	 6.000	 -0.888
1656029312.9369080	9.60600	1514.140000000	-9.49	1493.435499485	0.301699000	-2.74	0.301353578	 6.000	 0.790
1656029314.6373761	9.59900	1514.140000000	-9.49	1493.435499485	0.301699000	-2.74	0.301353578	 6.000	 -1.032
1656029315.8381801	9.59100	1514.140000000	-9.49	1493.435499485	0.301699000	-2.74	0.301353578	 6.000	 -1.070
1656029317.5360150	9.58700	1513.985000000	-9.49	1493.282618971	0.301668000	-2.75	0.301321100	 6.000	 1.065
1656029318.7354620	9.57900	1513.985000000	-9.49	1493.282618971	0.301699000	-2.74	0.301353578	 6.000	 -1.293
1656029320.9455719	9.57300	1513.985000000	-9.49	1493.282618971	0.301668000	-2.74	0.301322613	 6.000	 1.090
1656029322.1397510	9.56500	1513.985000000	-9.49	1493.282618971	0.301638000	-2.75	0.301291135	 6.000	 0.008
1656029323.8429461	9.55800	1513.835000000	-9.49	1493.108535366	0.301638000	-2.75	0.301291135	 6.000	 0.783
1656029325.0400331	9.55000	1513.835000000	-9.49	1493.108535366	0.301638000	-2.74	0.301292647	 6.000	 -0.864
1656029326.7434900	9.54400	1513.680000000	-9.49	1492.955657527	0.301638000	-2.74	0.301292647	 6.000	 -0.786
1656029327.9482760	9.53600	1513.680000000	-9.49	1492.955657527	0.301638000	-2.74	0.301292647	 6.000	 -0.362
1656029329.6434059	9.53100	1513.680000000	-9.49	1492.955657527	0.301607000	-2.74	0.301261683	 6.000	 0.898
1656029330.8455479	9.52200	1513.530000000	-9.49	1492.833840686	0.301607000	-2.74	0.301261683	 6.000	 0.231
1656029332.5460320	9.51700	1513.680000000	-9.49	1492.955657527	0.301607000	-2.74	0.301261683	 6.000	 -0.401
1656029333.7468221	9.50700	1513.530000000	-9.49	1492.807711232	0.301577000	-2.75	0.301230205	 6.000	 0.214
1656029335.9529531	9.50200	1513.530000000	-9.49	1492.833840686	0.301577000	-2.74	0.301231717	 6.000	 -0.846
1656029337.1454201	9.49400	1513.225000000	-9.49	1492.506887098	0.301546000	-2.75	0.301199240	 6.000	 -0.197
1656029338.8482430	9.48800	1513.225000000	-9.49	1492.506887098	0.301546000	-2.74	0.301200753	 6.000	 -0.886
1656029340.0516770	9.48000	1513.225000000	-9.49	1492.506887098	0.301546000	-2.74	0.301200753	 6.000	 1.322
1656029341.7481561	9.47400	1513.225000000	-9.49	1492.506887098	0.301516000	-2.75	0.301169275	 6.000	 0.713
1656029342.9509571	9.46600	1513.225000000	-9.49	1492.506887098	0.301516000	-2.74	0.301170787	 6.000	 1.195
1656029344.6494291	9.46000	1513.070000000	-9.49	1492.354009259	0.301516000	-2.74	0.301170787	 6.000	 -1.132
1656029345.8515861	9.45200	1513.070000000	-9.49	1492.354009259	0.301516000	-2.74	0.301170787	 6.000	 -0.551
1656029347.5560400	9.44600	1513.070000000	-9.49	1492.354009259	0.301516000	-2.74	0.301170787	 6.000	 -0.966
1656029348.7544940	9.43600	1513.070000000	-9.49	1492.354009259	0.301516000	-2.74	0.301170787	 6.000	 -1.149
1656029350.9576249	9.42900	1512.920000000	-9.49	1492.232181886	0.301485000	-2.74	0.301139823	 6.000	 1.306
1656029352.1607780	9.42100	1512.920000000	-9.49	1492.232181886	0.301485000	-2.74	0.301139823	 6.000	 1.073
1656029353.8559070	9.41500	1512.920000000	-9.49	1492.232181886	0.301485000	-2.74	0.301139823	 6.000	 -1.117
1656029355.0557101	9.40700	1512.765000000	-9.49	1492.079301372	0.301455000	-2.74	0.301109857	 6.000	 -0.536
1656029356.7561800	9.40100	1512.765000000	-9.49	1492.053185125	0.301455000	-2.74	0.301109857	 6.000	 -0.561
1656029357.9603300	9.39300	1512.765000000	-9.49	1492.079301372	0.301455000	-2.74	0.301109857	 6.000	 -0.239
1656029359.6627841	9.38600	1512.765000000	-9.49	1492.079301372	0.301455000	-2.74	0.301109857	 6.000	 -1.083
1656029360.8626020	9.37900	1512.765000000	-9.49	1492.079301372	0.301394000	-2.74	0.301048927	 6.000	 0.263
1656029362.5650661	9.37300	1512.615000000	-9.49	1491.931352487	0.301394000	-2.74	0.301048927	 6.000	 0.413
1656029363.7585261	9.36100	1512.460000000	-9.49	1491.778471972	0.301394000	-2.74	0.301048927	 6.000	 0.626
1656029365.9676471	9.35500	1512.460000000	-9.49	1491.778471972	0.301394000	-2.75	0.301047415	 6.000	 1.196
1656029367.1618080	9.34600	1512.310000000	-9.49	1491.630523087	0.301363000	-2.74	0.301017962	 6.000	 -0.091
1656029368.8612931	9.33900	1512.310000000	-9.49	1491.630523087	0.301363000	-2.74	0.301017962	 6.000	 0.688
1656029370.0607369	9.33000	1512.310000000	-9.49	1491.630523087	0.301363000	-2.74	0.301019470	 6.000	 1.145
1656029371.7655621	9.32500	1512.310000000	-9.49	1491.604414695	0.301363000	-2.74	0.301019470	 6.000	 -1.181
1656029372.9673510	9.31600	1512.310000000	-9.49	1491.630523087	0.301332000	-2.74	0.300986998	 6.000	 -0.388
1656029374.6654711	9.30900	1512.155000000	-9.49	1491.477642572	0.301332000	-2.74	0.300988506	 6.000	 0.860
1656029375.8682671	9.29800	1512.155000000	-9.49	1491.477642572	0.301332000	-2.74	0.300988506	 6.000	 0.134
1656029378.0723989	9.29100	1512.155000000	-9.49	1491.451536856	0.301302000	-2.74	0.300957032	 6.000	 -1.004
1656029379.3114440	9.28200	1512.155000000	-9.49	1491.477642572	0.301302000	-2.74	0.300957032	 6.000	 1.031
1656029381.0644281	9.27500	1512.005000000	-9.49	1491.329693687	0.301302000	-2.74	0.300957032	 6.000	 -0.511
1656029382.3041739	9.26600	1512.005000000	-9.49	1491.329693687	0.301302000	-2.74	0.300957032	 6.000	 1.244
1656029383.9986150	9.25900	1511.850000000	-9.49	1491.176813172	0.301302000	-2.74	0.300957032	 6.000	 -1.055
1656029385.1877980	9.25100	1511.850000000	-9.49	1491.176813172	0.301271000	-2.74	0.300926068	 6.000	 -0.470
1656029386.8783000	9.24400	1511.850000000	-9.49	1491.176813172	0.301271000	-2.74	0.300926068	 6.000	 -1.192
1656029388.0667760	9.23500	1511.850000000	-9.49	1491.150712722	0.301271000	-2.74	0.300926068	 6.000	 1.363
1656029389.7672460	9.22700	1511.700000000	-9.49	1491.002766426	0.301241000	-2.74	0.300896102	 6.000	 0.695
1656029390.9713881	9.21800	1511.700000000	-9.49	1491.002766426	0.301241000	-2.74	0.300896102	 6.000	 -0.975
1656029392.6668780	9.21300	1511.700000000	-9.49	1491.002766426	0.301210000	-2.74	0.300865137	 6.000	 1.225
1656029393.8676760	9.20400	1511.700000000	-9.49	1491.028864287	0.301210000	-2.74	0.300865137	 6.000	 -0.753
1656029395.5691431	9.19600	1511.545000000	-9.49	1490.875983773	0.301180000	-2.74	0.300836679	 6.000	 0.452
1656029396.7665980	9.18800	1511.395000000	-9.49	1490.728034888	0.301180000	-2.74	0.300835172	 6.000	 0.167
1656029398.4714119	9.18000	1511.545000000	-9.49	1490.875983773	0.301180000	-2.74	0.300835172	 6.000	 -1.196
1656029399.6672239	9.16800	1511.395000000	-9.49	1490.728034888	0.301180000	-2.74	0.300836679	 6.000	 0.030
1656029401.8680091	9.16000	1511.395000000	-9.49	1490.728034888	0.301180000	-2.74	0.300835172	 6.000	 -0.882
1656029403.0678129	9.15100	1511.240000000	-9.48	1490.601227947	0.301149000	-2.74	0.300804207	 6.000	 1.154
1656029404.7706349	9.14600	1511.240000000	-9.49	1490.575154373	0.301149000	-2.74	0.300804207	 6.000	 -1.147
1656029405.9704340	9.13800	1511.240000000	-9.49	1490.575154373	0.301149000	-2.74	0.300804207	 6.000	 1.038
1656029407.6729000	9.13000	1511.240000000	-9.49	1490.575154373	0.301119000	-2.74	0.300775748	 6.000	 1.170
1656029408.8763421	9.12200	1511.085000000	-9.49	1490.422273858	0.301119000	-2.74	0.300774242	 6.000	 1.473
1656029410.5738201	9.11500	1511.085000000	-9.49	1490.422273858	0.301119000	-2.74	0.300774242	 6.000	 -1.106
1656029411.7736199	9.10700	1511.085000000	-9.49	1490.422273858	0.301119000	-2.74	0.300775748	 6.000	 -0.968
1656029413.4790750	9.10200	1510.935000000	-9.49	1490.274324973	0.301088000	-2.74	0.300743277	 6.000	 -1.209
1656029414.6748929	9.09100	1510.935000000	-9.49	1490.274324973	0.301088000	-2.74	0.300743277	 6.000	 1.141
1656029416.8783710	9.08600	1510.935000000	-9.49	1490.274324973	0.301058000	-2.74	0.300714818	 6.000	 -0.731
1656029418.0768299	9.07800	1510.780000000	-9.49	1490.121444459	0.301088000	-2.74	0.300744784	 6.000	 1.144
1656029419.7786560	9.07300	1510.780000000	-9.49	1490.121444459	0.301058000	-2.74	0.300713311	 6.000	 -1.003
1656029420.9814470	9.06400	1510.780000000	-9.49	1490.121444459	0.301058000	-2.74	0.300713311	 6.000	 0.799
1656029422.6845551	9.05700	1510.780000000	-9.49	1490.121444459	0.301027000	-2.74	0.300683853	 6.000	 -1.171
1656029423.8793731	9.04800	1510.630000000	-9.49	1489.973495573	0.301027000	-2.74	0.300683853	 6.000	 0.699
1656029425.5828350	9.04300	1510.475000000	-9.49	1489.820615059	0.300997000	-2.74	0.300653887	 6.000	 -0.603
1656029426.7789879	9.03500	1510.475000000	-9.49	1489.820615059	0.300997000	-2.74	0.300652381	 6.000	 1.242
1656029428.4831090	9.03000	1510.475000000	-9.49	1489.820615059	0.300997000	-2.74	0.300653887	 6.000	 -0.023
1656029429.6792819	9.01900	1510.475000000	-9.49	1489.820615059	0.300966000	-2.74	0.300622923	 6.000	 1.384
1656029431.3843780	9.01600	1510.475000000	-9.49	1489.820615059	0.300966000	-2.74	0.300622923	 6.000	 1.390
1656029432.5841830	9.00400	1510.325000000	-9.49	1489.672666174	0.300966000	-2.74	0.300621417	 6.000	 0.894
1656029434.7853200	8.99700	1510.325000000	-9.49	1489.672666174	0.300966000	-2.74	0.300622923	 6.000	 -1.162
1656029435.9874730	8.98900	1510.170000000	-9.49	1489.519785659	0.300966000	-2.75	0.300619907	 6.000	 -0.808
1656029437.6869440	8.98400	1510.170000000	-9.49	1489.519785659	0.300936000	-2.74	0.300591451	 6.000	 0.394
1656029438.8814080	8.97500	1510.170000000	-9.49	1489.519785659	0.300905000	-2.74	0.300561992	 6.000	 -0.319
1656029440.5808811	8.96900	1510.170000000	-9.49	1489.519785659	0.300936000	-2.74	0.300592957	 6.000	 -0.789
1656029441.7746980	8.96200	1510.170000000	-9.49	1489.519785659	0.300905000	-2.74	0.300561992	 6.000	 -0.878
1656029443.4831481	8.95500	1510.020000000	-9.49	1489.371836774	0.300905000	-2.74	0.300560487	 6.000	 -1.216
1656029444.6803210	8.94500	1510.020000000	-9.49	1489.371836774	0.300905000	-2.74	0.300560487	 6.000	 0.150
1656029446.8791010	8.93700	1509.865000000	-9.48	1489.245006110	0.300844000	-2.74	0.300499556	 6.000	 -0.354
1656029448.0809040	8.92900	1509.865000000	-9.48	1489.245006110	0.300844000	-2.74	0.300499556	 6.000	 1.312
1656029449.7807169	8.92500	1509.865000000	-9.48	1489.245006110	0.300844000	-2.74	0.300501062	 6.000	 -0.726
1656029450.9835229	8.91400	1509.865000000	-9.48	1489.245006110	0.300844000	-2.74	0.300501062	 6.000	 1.072
1656029452.6839840	8.90900	1509.865000000	-9.49	1489.218956259	0.300844000	-2.74	0.300499556	 6.000	 0.895
1656029453.8818049	8.90000	1509.560000000	-9.49	1488.918126860	0.300814000	-2.74	0.300469591	 6.000	 -0.785
1656029455.5809219	8.89500	1509.560000000	-9.49	1488.918126860	0.300814000	-2.74	0.300469591	 6.000	 1.368
1656029456.7840590	8.88300	1509.560000000	-9.49	1488.918126860	0.300814000	-2.74	0.300471096	 6.000	 0.210
1656029458.9872019	8.87600	1509.560000000	-9.49	1488.918126860	0.300783000	-2.74	0.300438626	 6.000	 1.124
1656029460.1886439	8.87000	1509.560000000	-9.49	1488.918126860	0.300783000	-2.74	0.300440131	 6.000	 -1.017
1656029461.8821340	8.86300	1509.560000000	-9.49	1488.918126860	0.300783000	-2.74	0.300440131	 6.000	 0.027
1656029463.0829370	8.85500	1509.410000000	-9.48	1488.796219975	0.300783000	-2.74	0.300440131	 6.000	 0.481
1656029464.7847490	8.84800	1509.410000000	-9.49	1488.770177974	0.300753000	-2.74	0.300408661	 6.000	 1.108
1656029465.9941859	8.83900	1509.255000000	-9.49	1488.617297460	0.300753000	-2.74	0.300410166	 6.000	 -0.445
1656029467.6896651	8.83400	1509.255000000	-9.49	1488.617297460	0.300753000	-2.74	0.300410166	 6.000	 -0.888
1656029468.8904660	8.82600	1509.255000000	-9.49	1488.617297460	0.300753000	-2.74	0.300410166	 6.000	 -0.482
1656029470.5892961	8.82100	1509.255000000	-9.49	1488.617297460	0.300722000	-2.74	0.300379201	 6.000	 -0.345
1656029471.7910900	8.81000	1509.105000000	-9.49	1488.469348575	0.300722000	-2.74	0.300379201	 6.000	 0.031
1656029473.4941990	8.80500	1509.105000000	-9.49	1488.469348575	0.300722000	-2.74	0.300379201	 6.000	 1.259
1656029474.6900160	8.79500	1509.105000000	-9.49	1488.469348575	0.300692000	-2.74	0.300349235	 6.000	 0.998
1656029476.8915091	8.78800	1509.105000000	-9.49	1488.469348575	0.300661000	-2.74	0.300318270	 6.000	 0.015
1656029478.0972910	8.77900	1509.105000000	-9.49	1488.469348575	0.300692000	-2.74	0.300349235	 6.000	 -1.357
1656029479.8004019	8.77200	1508.950000000	-9.49	1488.316468060	0.300661000	-2.74	0.300318270	 6.000	 -0.514
1656029481.0035429	8.76400	1508.800000000	-9.49	1488.168519175	0.300661000	-2.74	0.300318270	 6.000	 -0.379
1656029482.6996789	8.75900	1508.800000000	-9.49	1488.168519175	0.300661000	-2.74	0.300318270	 6.000	 -1.094
1656029483.9014781	8.75100	1508.800000000	-9.49	1488.168519175	0.300661000	-2.74	0.300318270	 6.000	 -0.233
1656029485.6079321	8.74400	1508.645000000	-9.49	1488.015638660	0.300631000	-2.74	0.300288305	 6.000	 0.219
1656029486.7997570	8.73300	1508.645000000	-9.48	1488.041667462	0.300631000	-2.73	0.300289806	 6.000	 -1.045
1656029489.0029969	8.72700	1508.495000000	-9.49	1487.867689775	0.300600000	-2.74	0.300257340	 6.000	 -0.744
1656029490.1970611	8.71800	1508.495000000	-9.49	1487.867689775	0.300600000	-2.74	0.300257340	 6.000	 -1.032
1656029491.9001670	8.71300	1508.495000000	-9.48	1487.893715989	0.300570000	-2.74	0.300227374	 6.000	 1.536
1656029493.1029630	8.70200	1508.340000000	-9.48	1487.740832800	0.300570000	-2.74	0.300225870	 6.000	 -1.102
1656029494.8044319	8.69700	1508.340000000	-9.48	1487.740832800	0.300570000	-2.74	0.300227374	 6.000	 -0.615
1656029496.0092230	8.68800	1508.340000000	-9.48	1487.740832800	0.300570000	-2.74	0.300227374	 6.000	 -0.472
1656029497.7067029	8.68300	1508.340000000	-9.48	1487.740832800	0.300570000	-2.74	0.300225870	 6.000	 -1.161
1656029498.9094951	8.67600	1508.190000000	-9.49	1487.566860375	0.300539000	-2.74	0.300194906	 6.000	 0.310
1656029500.6099651	8.66800	1508.190000000	-9.49	1487.566860375	0.300539000	-2.74	0.300194906	 6.000	 -0.498
1656029501.8107700	8.65600	1508.190000000	-9.49	1487.566860375	0.300539000	-2.74	0.300196410	 6.000	 0.637
1656029504.0082591	8.64900	1508.190000000	-9.48	1487.592881327	0.300508000	-2.74	0.300163941	 6.000	 1.037
1656029505.2067211	8.64200	1508.035000000	-9.49	1487.413979861	0.300508000	-2.74	0.300165445	 6.000	 -1.096
1656029506.9095080	8.63700	1508.035000000	-9.48	1487.439998138	0.300508000	-2.74	0.300165445	 6.000	 -0.367
1656029508.1079919	8.62700	1507.885000000	-9.48	1487.292046665	0.300478000	-2.74	0.300135479	 6.000	 0.119
1656029509.8144469	8.62000	1507.885000000	-9.48	1487.292046665	0.300478000	-2.74	0.300133975	 6.000	 0.914
1656029511.0126100	8.61200	1507.885000000	-9.48	1487.292046665	0.300447000	-2.74	0.300104514	 6.000	 0.912
1656029512.7107301	8.60700	1507.885000000	-9.48	1487.292046665	0.300447000	-2.74	0.300103011	 6.000	 -1.215
1656029513.9115319	8.59700	1507.730000000	-9.48	1487.139163476	0.300447000	-2.74	0.300104514	 6.000	 1.226
1656029515.6110051	8.59100	1507.730000000	-9.49	1487.113150461	0.300447000	-2.74	0.300104514	 6.000	 -0.046
1656029516.8128040	8.58100	1507.580000000	-9.49	1486.965201576	0.300417000	-2.74	0.300073045	 6.000	 -0.624
1656029519.0182860	8.57600	1507.580000000	-9.49	1486.965201576	0.300417000	-2.74	0.300074549	 6.000	 -1.174
1656029520.2147379	8.56700	1507.580000000	-9.49	1486.965201576	0.300386000	-2.74	0.300043584	 6.000	 -0.857
1656029521.9122190	8.56200	1507.580000000	-9.48	1486.991212003	0.300386000	-2.74	0.300043584	 6.000	 0.911
1656029523.1153629	8.55200	1507.425000000	-9.49	1486.812321061	0.300386000	-2.74	0.300043584	 6.000	 -0.566
1656029524.8114951	8.54500	1507.425000000	-9.49	1486.812321061	0.300386000	-2.74	0.300043584	 6.000	 -0.115
1656029526.0156529	8.53400	1507.425000000	-9.48	1486.838328814	0.300386000	-2.74	0.300043584	 6.000	 -0.769
1656029527.7181101	8.52800	1507.275000000	-9.48	1486.690377341	0.300386000	-2.74	0.300043584	 6.000	 1.132
1656029528.9149129	8.52000	1507.275000000	-9.48	1486.690377341	0.300356000	-2.74	0.300013618	 6.000	 -0.970
1656029530.6143961	8.51500	1507.275000000	-9.48	1486.690377341	0.300356000	-2.74	0.300013618	 6.000	 1.069
1656029531.8152001	8.50500	1507.275000000	-9.49	1486.664372176	0.300356000	-2.74	0.300013618	 6.000	 -0.603
1656029534.0213151	8.50000	1507.275000000	-9.49	1486.664372176	0.300325000	-2.74	0.299982654	 6.000	 1.172
1656029535.2241220	8.49200	1506.970000000	-9.48	1486.389542679	0.300325000	-2.74	0.299982654	 6.000	 1.322
1656029536.9202371	8.48500	1506.970000000	-9.48	1486.389542679	0.300295000	-2.74	0.299952688	 6.000	 -0.524
1656029538.1203971	8.47500	1506.970000000	-9.48	1486.389542679	0.300295000	-2.74	0.299952688	 6.000	 -0.958
1656029539.8248560	8.46800	1506.970000000	-9.48	1486.389542679	0.300264000	-2.73	0.299923222	 6.000	 1.218
1656029541.0246589	8.45900	1506.970000000	-9.48	1486.389542679	0.300264000	-2.74	0.299921723	 6.000	 1.578
1656029542.7221429	8.45300	1506.815000000	-9.48	1486.236659491	0.300264000	-2.74	0.299921723	 6.000	 1.352
1656029543.9199440	8.44300	1506.815000000	-9.48	1486.236659491	0.300264000	-2.74	0.299921723	 6.000	 -0.248
1656029546.1227231	8.43600	1506.815000000	-9.48	1486.236659491	0.300234000	-2.74	0.299890255	 6.000	 1.231
1656029547.3733921	8.42600	1506.660000000	-9.48	1486.083776302	0.300203000	-2.74	0.299860793	 6.000	 -0.252
1656029549.1287169	8.41900	1506.660000000	-9.48	1486.083776302	0.300203000	-2.74	0.299860793	 6.000	 0.003
1656029550.3674130	8.41300	1506.660000000	-9.48	1486.083776302	0.300234000	-2.73	0.299893256	 6.000	 0.402
1656029552.0579140	8.40700	1506.510000000	-9.48	1485.935824829	0.300203000	-2.74	0.299859290	 6.000	 1.187
1656029553.2507350	8.39800	1506.510000000	-9.48	1485.935824829	0.300203000	-2.74	0.299859290	 6.000	 0.320
1656029554.9392381	8.39400	1506.510000000	-9.48	1485.935824829	0.300203000	-2.74	0.299859290	 6.000	 0.915
1656029556.1270750	8.38200	1506.510000000	-9.48	1485.935824829	0.300203000	-2.74	0.299860793	 6.000	 1.144
1656029557.8267851	8.37700	1506.510000000	-9.48	1485.935824829	0.300203000	-2.74	0.299860793	 6.000	 -0.887
1656029559.0353260	8.36700	1506.355000000	-9.48	1485.782941640	0.300142000	-2.74	0.299799862	 6.000	 1.441
1656029560.7341449	8.36200	1506.355000000	-9.48	1485.782941640	0.300173000	-2.74	0.299830827	 6.000	 1.306
1656029561.9336050	8.35300	1506.355000000	-9.48	1485.782941640	0.300142000	-2.74	0.299799862	 6.000	 -0.930
1656029563.6330781	8.34700	1506.205000000	-9.48	1485.634990167	0.300112000	-2.74	0.299769896	 6.000	 -1.030
1656029564.8292360	8.33500	1506.050000000	-9.48	1485.482106978	0.300112000	-2.74	0.299769896	 6.000	 -0.304
1656029567.0353770	8.32900	1506.050000000	-9.48	1485.482106978	0.300112000	-2.74	0.299769896	 6.000	 -1.240
1656029568.2328241	8.32200	1506.050000000	-9.48	1485.482106978	0.300112000	-2.74	0.299769896	 6.000	 -1.081
1656029569.9273119	8.31400	1506.050000000	-9.48	1485.482106978	0.300112000	-2.74	0.299769896	 6.000	 1.214
1656029571.1304610	8.30600	1506.050000000	-9.48	1485.482106978	0.300112000	-2.74	0.299769896	 6.000	 -0.454
1656029572.8305750	8.29900	1505.900000000	-9.48	1485.334155505	0.300081000	-2.74	0.299738932	 6.000	 0.854
1656029574.0343690	8.29000	1505.900000000	-9.48	1485.334155505	0.300081000	-2.74	0.299738932	 6.000	 0.025
1656029575.7302051	8.28100	1505.900000000	-9.48	1485.334155505	0.300051000	-2.74	0.299708966	 6.000	 -0.968
1656029576.9338119	8.27300	1505.745000000	-9.48	1485.181272316	0.300051000	-2.73	0.299710464	 6.000	 0.822
1656029578.6334729	8.26600	1505.745000000	-9.48	1485.181272316	0.300051000	-2.74	0.299708966	 6.000	 1.215
1656029579.8289330	8.25700	1505.745000000	-9.48	1485.181272316	0.300051000	-2.74	0.299708966	 6.000	 0.404
1656029581.5333891	8.25100	1505.595000000	-9.48	1485.033320843	0.300020000	-2.73	0.299679499	 6.000	 0.714
1656029582.7355490	8.23800	1505.595000000	-9.48	1485.033320843	0.300020000	-2.74	0.299678001	 6.000	 -1.171
1656029584.9336901	8.23000	1505.595000000	-9.48	1485.033320843	0.299990000	-2.74	0.299648035	 6.000	 0.329
1656029586.1381259	8.22200	1505.595000000	-9.48	1485.033320843	0.299990000	-2.74	0.299648035	 6.000	 -1.082
1656029587.8366001	8.21600	1505.595000000	-9.48	1485.033320843	0.299990000	-2.74	0.299648035	 6.000	 -0.662
1656029589.0417449	8.20500	1505.440000000	-9.48	1484.880437654	0.299990000	-2.73	0.299649533	 6.000	 -1.175
1656029590.7372360	8.19900	1505.440000000	-9.48	1484.880437654	0.299990000	-2.74	0.299648035	 6.000	 1.357
1656029591.9380300	8.18900	1505.290000000	-9.48	1484.732486181	0.299959000	-2.74	0.299617071	 6.000	 -0.438
1656029593.6385059	8.18100	1505.290000000	-9.48	1484.732486181	0.299929000	-2.74	0.299587105	 6.000	 -0.975
1656029594.8412931	8.17400	1505.290000000	-9.48	1484.732486181	0.299929000	-2.73	0.299588603	 6.000	 -0.053
1656029596.5404141	8.16700	1505.290000000	-9.48	1484.732486181	0.299929000	-2.73	0.299588603	 6.000	 -0.957
1656029597.7392220	8.15600	1505.135000000	-9.48	1484.579602992	0.299898000	-2.73	0.299557638	 6.000	 0.960
1656029599.4410479	8.14900	1504.985000000	-9.48	1484.431651519	0.299929000	-2.74	0.299587105	 6.000	 0.398
1656029600.6398599	8.13500	1504.985000000	-9.48	1484.431651519	0.299868000	-2.73	0.299527672	 6.000	 1.379
1656029602.8399761	8.12900	1504.985000000	-9.48	1484.431651519	0.299868000	-2.73	0.299527672	 6.000	 1.046
1656029604.0474169	8.11900	1504.985000000	-9.48	1484.431651519	0.299868000	-2.74	0.299526174	 6.000	 1.018
1656029605.7508790	8.11100	1504.830000000	-9.48	1484.278768330	0.299837000	-2.74	0.299495210	 6.000	 1.068
1656029606.9470470	8.10400	1504.830000000	-9.48	1484.278768330	0.299868000	-2.74	0.299526174	 6.000	 -1.171
1656029608.6475151	8.09900	1504.830000000	-9.48	1484.278768330	0.299837000	-2.74	0.299495210	 6.000	 1.106
1656029609.8459699	8.09100	1504.680000000	-9.48	1484.130816857	0.299837000	-2.74	0.299495210	 6.000	 -1.152
1656029611.5514269	8.08600	1504.680000000	-9.48	1484.130816857	0.299807000	-2.74	0.299465244	 6.000	 0.225
1656029612.7515800	8.07400	1504.680000000	-9.48	1484.130816857	0.299807000	-2.74	0.299465244	 6.000	 0.327
1656029614.9423909	8.06900	1504.680000000	-9.48	1484.130816857	0.299807000	-2.74	0.299465244	 6.000	 -1.036
1656029616.1402020	8.05900	1504.525000000	-9.48	1483.977933668	0.299746000	-2.73	0.299405810	 6.000	 1.173
1656029617.8396740	8.05200	1504.525000000	-9.48	1483.977933668	0.299746000	-2.74	0.299404314	 6.000	 0.769
1656029619.0474589	8.04400	1504.525000000	-9.48	1483.977933668	0.299746000	-2.74	0.299404314	 6.000	 0.494
1656029620.7403021	8.04000	1504.220000000	-9.48	1483.677099006	0.299746000	-2.74	0.299404314	 6.000	 0.179
1656029621.9431050	8.02900	1504.220000000	-9.48	1483.677099006	0.299715000	-2.73	0.299374845	 6.000	 0.847
1656029623.6442130	8.02500	1504.220000000	-9.48	1483.677099006	0.299715000	-2.74	0.299373349	 6.000	 0.863
1656029624.8430190	8.01200	1504.070000000	-9.47	1483.555081133	0.299715000	-2.74	0.299373349	 6.000	 1.356
1656029627.0474920	8.00900	1504.070000000	-9.48	1483.529147533	0.299685000	-2.74	0.299343383	 6.000	 0.814
1656029628.2443049	7.99900	1504.070000000	-9.48	1483.529147533	0.299685000	-2.73	0.299344879	 6.000	 0.071
1656029629.9464231	7.99300	1504.070000000	-9.48	1483.529147533	0.299685000	-2.73	0.299344879	 6.000	 1.311
1656029631.1443410	7.98400	1503.915000000	-9.48	1483.376264344	0.299654000	-2.73	0.299313915	 6.000	 -0.947
1656029632.8470349	7.97900	1503.915000000	-9.48	1483.376264344	0.299654000	-2.74	0.299312418	 6.000	 -0.996
1656029634.0518651	7.97000	1503.765000000	-9.48	1483.228312871	0.299654000	-2.74	0.299312418	 6.000	 -0.984
1656029635.7479680	7.96600	1503.765000000	-9.48	1483.228312871	0.299654000	-2.73	0.299313915	 6.000	 0.863
1656029636.9501281	7.95700	1503.765000000	-9.48	1483.228312871	0.299654000	-2.73	0.299313915	 6.000	 -0.544
1656029638.6502371	7.95100	1503.765000000	-9.47	1483.254241212	0.299623000	-2.73	0.299282950	 6.000	 -1.013
1656029639.8510389	7.94000	1503.610000000	-9.47	1483.101355351	0.299623000	-2.73	0.299282950	 6.000	 0.981
1656029641.5545011	7.93500	1503.610000000	-9.48	1483.075429682	0.299593000	-2.74	0.299251488	 6.000	 -1.126
1656029642.7473199	7.92600	1503.610000000	-9.48	1483.075429682	0.299593000	-2.73	0.299252984	 6.000	 -0.753
1656029644.4547729	7.92200	1503.460000000	-9.48	1482.927478209	0.299562000	-2.73	0.299222019	 6.000	 -1.046
1656029645.6529379	7.90700	1503.305000000	-9.48	1482.774595020	0.299532000	-2.73	0.299192053	 6.000	 0.636
1656029647.8510699	7.90300	1503.305000000	-9.48	1482.774595020	0.299532000	-2.72	0.299193545	 6.000	 -0.878
1656029649.0578711	7.89600	1503.305000000	-9.48	1482.774595020	0.299532000	-2.73	0.299192053	 6.000	 -0.233
1656029650.7529960	7.88900	1503.305000000	-9.48	1482.774595020	0.299532000	-2.73	0.299192053	 6.000	 0.963
1656029651.9587860	7.87900	1503.155000000	-9.48	1482.626643547	0.299532000	-2.74	0.299190557	 6.000	 1.243
1656029653.6612461	7.87400	1503.155000000	-9.48	1482.626643547	0.299532000	-2.73	0.299192053	 6.000	 -1.182
1656029654.8571019	7.86700	1503.155000000	-9.48	1482.626643547	0.299501000	-2.74	0.299159593	 6.000	 0.109
1656029656.5608871	7.86000	1503.000000000	-9.48	1482.473760358	0.299501000	-2.73	0.299161088	 6.000	 -1.001
1656029657.7613230	7.84900	1503.000000000	-9.48	1482.473760358	0.299471000	-2.73	0.299131122	 6.000	 -1.123
1656029659.9654551	7.84200	1503.000000000	-9.48	1482.473760358	0.299471000	-2.73	0.299131122	 6.000	 -1.151
1656029661.1622641	7.83300	1502.850000000	-9.47	1482.351721450	0.299471000	-2.74	0.299129627	 6.000	 -1.030
1656029662.8660729	7.82900	1502.850000000	-9.48	1482.325808885	0.299471000	-2.73	0.299131122	 6.000	 -0.660
1656029664.0608990	7.82100	1502.695000000	-9.48	1482.172925696	0.299471000	-2.73	0.299131122	 6.000	 1.004
1656029665.7573881	7.81300	1502.850000000	-9.48	1482.325808885	0.299440000	-2.74	0.299098662	 6.000	 -0.575
1656029666.9551909	7.80600	1502.695000000	-9.47	1482.198835588	0.299410000	-2.73	0.299070192	 6.000	 0.848
1656029668.6573000	7.79800	1502.695000000	-9.47	1482.198835588	0.299410000	-2.73	0.299070192	 6.000	 -0.914
1656029669.8561070	7.78900	1502.695000000	-9.47	1482.198835588	0.299410000	-2.74	0.299068697	 6.000	 -0.461
1656029671.5609350	7.78300	1502.540000000	-9.47	1482.045949727	0.299410000	-2.73	0.299070192	 6.000	 0.406
1656029672.7593720	7.77200	1502.390000000	-9.47	1481.897995668	0.299379000	-2.73	0.299039227	 6.000	 0.214
1656029674.9644971	7.76700	1502.390000000	-9.47	1481.897995668	0.299379000	-2.73	0.299039227	 6.000	 -0.011
1656029676.1586580	7.75700	1502.390000000	-9.47	1481.897995668	0.299349000	-2.74	0.299007766	 6.000	 -0.050
1656029677.8577931	7.75200	1502.390000000	-9.47	1481.897995668	0.299349000	-2.73	0.299009261	 6.000	 0.682
1656029679.0645750	7.74100	1502.235000000	-9.47	1481.745109806	0.299349000	-2.74	0.299007766	 6.000	 1.285
1656029680.7670400	7.73700	1502.390000000	-9.47	1481.897995668	0.299349000	-2.73	0.299009261	 6.000	 1.323
1656029681.9618549	7.72900	1502.085000000	-9.47	1481.597155747	0.299318000	-2.73	0.298978296	 6.000	 1.364
1656029683.6766429	7.72300	1502.085000000	-9.47	1481.597155747	0.299318000	-2.73	0.298978296	 6.000	 1.454
1656029684.8641281	7.70900	1502.085000000	-9.47	1481.597155747	0.299318000	-2.73	0.298978296	 6.000	 -1.033
1656029687.0712471	7.70500	1502.085000000	-9.48	1481.571256372	0.299318000	-2.73	0.298978296	 6.000	 -0.859
1656029688.2660630	7.69800	1501.930000000	-9.47	1481.444269885	0.299288000	-2.73	0.298948330	 6.000	 1.072
1656029689.9665320	7.69200	1501.930000000	-9.47	1481.444269885	0.299257000	-2.73	0.298917365	 6.000	 -0.189
1656029691.1657000	7.68300	1501.930000000	-9.47	1481.444269885	0.299257000	-2.73	0.298917365	 6.000	 0.098
1656029692.8671501	7.67500	1501.780000000	-9.47	1481.296315826	0.299227000	-2.72	0.298888890	 6.000	 -0.541
1656029694.0719500	7.66800	1501.780000000	-9.47	1481.296315826	0.299227000	-2.73	0.298887399	 6.000	 0.860
1656029695.7704380	7.66000	1501.780000000	-9.47	1481.296315826	0.299196000	-2.73	0.298856434	 6.000	 -0.059
1656029696.9748609	7.64900	1501.625000000	-9.47	1481.143429965	0.299196000	-2.73	0.298856434	 6.000	 1.346
1656029699.1690171	7.64300	1501.625000000	-9.47	1481.143429965	0.299196000	-2.73	0.298856434	 6.000	 -0.994
1656029700.4136970	7.63400	1501.475000000	-9.48	1480.969587049	0.299196000	-2.73	0.298856434	 6.000	 0.940
1656029702.1550570	7.62700	1501.475000000	-9.47	1480.995475905	0.299196000	-2.73	0.298856434	 6.000	 -0.942
1656029703.4077239	7.62200	1501.475000000	-9.47	1480.995475905	0.299166000	-2.73	0.298826468	 6.000	 0.835
1656029704.5945611	7.61500	1501.320000000	-9.47	1480.842590044	0.299166000	-2.73	0.298826468	 6.000	 -0.108
1656029705.7873831	7.60900	1501.320000000	-9.47	1480.842590044	0.299166000	-2.73	0.298826468	 6.000	 -0.613
1656029707.4768829	7.60200	1501.320000000	-9.47	1480.842590044	0.299135000	-2.72	0.298796994	 6.000	 1.013
1656029708.6707020	7.59000	1501.320000000	-9.47	1480.842590044	0.299135000	-2.73	0.298795504	 6.000	 -0.656
1656029710.8728330	7.58300	1501.170000000	-9.47	1480.694635984	0.299105000	-2.74	0.298764044	 6.000	 -1.094
1656029712.0848091	7.57400	1501.170000000	-9.47	1480.694635984	0.299105000	-2.73	0.298765538	 6.000	 -0.822
1656029713.7744560	7.56900	1501.015000000	-9.47	1480.541750123	0.299105000	-2.73	0.298765538	 6.000	 0.234
1656029714.9732649	7.56200	1501.015000000	-9.47	1480.541750123	0.299105000	-2.73	0.298765538	 6.000	 1.233
1656029716.6707530	7.55600	1501.015000000	-9.47	1480.541750123	0.299074000	-2.73	0.298734573	 6.000	 -1.080
1656029717.8771751	7.54400	1501.015000000	-9.47	1480.541750123	0.299044000	-2.73	0.298704607	 6.000	 0.265
1656029720.0876710	7.53700	1500.865000000	-9.47	1480.393796063	0.299044000	-2.73	0.298704607	 6.000	 -0.240
1656029721.2774739	7.52700	1500.865000000	-9.47	1480.393796063	0.299044000	-2.73	0.298704607	 6.000	 0.179
1656029722.9759459	7.52300	1500.865000000	-9.47	1480.393796063	0.299044000	-2.73	0.298704607	 6.000	 -1.107
1656029724.1783881	7.51400	1500.710000000	-9.47	1480.240910202	0.299013000	-2.73	0.298673642	 6.000	 -0.808
1656029725.8798571	7.50800	1500.710000000	-9.47	1480.240910202	0.299013000	-2.73	0.298673642	 6.000	 1.245
1656029727.0846460	7.49700	1500.560000000	-9.47	1480.092956143	0.299013000	-2.72	0.298675132	 6.000	 -0.393
1656029728.7811220	7.49100	1500.560000000	-9.47	1480.092956143	0.298983000	-2.73	0.298643676	 6.000	 1.438
1656029729.9839201	7.48400	1500.405000000	-9.47	1479.940070281	0.298983000	-2.72	0.298645166	 6.000	 1.116
1656029731.6804011	7.47600	1500.405000000	-9.47	1479.940070281	0.298983000	-2.73	0.298643676	 6.000	 -0.386
1656029732.8815460	7.47100	1500.405000000	-9.47	1479.940070281	0.298952000	-2.73	0.298612711	 6.000	 1.144
1656029734.5886550	7.46300	1500.405000000	-9.47	1479.940070281	0.298952000	-2.72	0.298614201	 6.000	 0.409
1656029735.7858300	7.45100	1500.255000000	-9.47	1479.792116222	0.298952000	-2.73	0.298612711	 6.000	 0.972
1656029737.9895930	7.44700	1500.255000000	-9.47	1479.792116222	0.298922000	-2.72	0.298584235	 6.000	 -0.985
1656029739.1907380	7.43600	1500.100000000	-9.47	1479.639230360	0.298922000	-2.73	0.298582745	 6.000	 1.445
1656029740.8828840	7.42900	1500.100000000	-9.47	1479.639230360	0.298922000	-2.73	0.298582745	 6.000	 -1.272
1656029742.0826881	7.42200	1500.100000000	-9.47	1479.665079283	0.298922000	-2.73	0.298582745	 6.000	 1.319
1656029743.7865040	7.41500	1500.100000000	-9.47	1479.639230360	0.298861000	-2.72	0.298523304	 6.000	 -0.470
1656029744.9873030	7.40700	1499.950000000	-9.47	1479.491276301	0.298861000	-2.73	0.298521815	 6.000	 0.697
1656029746.6867731	7.40100	1499.950000000	-9.47	1479.491276301	0.298861000	-2.72	0.298523304	 6.000	 -0.534
1656029747.8882210	7.39100	1499.795000000	-9.47	1479.338390439	0.298861000	-2.73	0.298521815	 6.000	 1.169
1656029749.5886929	7.38600	1499.795000000	-9.47	1479.338390439	0.298861000	-2.72	0.298523304	 6.000	 0.759
1656029750.7865009	7.37800	1499.645000000	-9.47	1479.190436380	0.298830000	-2.72	0.298492339	 6.000	 -0.404
1656029752.4873221	7.37300	1499.645000000	-9.47	1479.190436380	0.298830000	-2.73	0.298490850	 6.000	 -1.013
1656029753.6857750	7.35700	1499.490000000	-9.47	1479.037550519	0.298800000	-2.72	0.298462373	 6.000	 -0.182
1656029755.8879070	7.35500	1499.490000000	-9.47	1479.037550519	0.298800000	-2.74	0.298459392	 6.000	 1.109
1656029757.0920701	7.34600	1499.490000000	-9.47	1479.037550519	0.298800000	-2.73	0.298460884	 6.000	 0.468
1656029758.7895329	7.33800	1499.490000000	-9.47	1479.037550519	0.298800000	-2.72	0.298462373	 6.000	 0.396
1656029759.9919729	7.33000	1499.340000000	-9.47	1478.889596459	0.298769000	-2.73	0.298429919	 6.000	 1.072
1656029761.6884539	7.32500	1499.340000000	-9.47	1478.889596459	0.298769000	-2.73	0.298429919	 6.000	 -1.124
1656029762.8912480	7.31500	1499.185000000	-9.47	1478.736710598	0.298738000	-2.73	0.298398954	 6.000	 -0.516
1656029764.5957110	7.31000	1499.185000000	-9.47	1478.736710598	0.298738000	-2.73	0.298398954	 6.000	 1.521
1656029765.7888861	7.30100	1499.185000000	-9.47	1478.736710598	0.298738000	-2.72	0.298400443	 6.000	 -0.198
1656029767.5013249	7.29200	1499.185000000	-9.47	1478.736710598	0.298708000	-2.73	0.298368988	 6.000	 -1.084
1656029768.6951449	7.28400	1499.035000000	-9.47	1478.588756538	0.298677000	-2.72	0.298339512	 6.000	 -1.118
1656029770.8929350	7.27500	1499.035000000	-9.47	1478.588756538	0.298677000	-2.72	0.298339512	 6.000	 1.050
1656029772.0917389	7.26500	1499.035000000	-9.47	1478.588756538	0.298677000	-2.72	0.298339512	 6.000	 0.404
1656029773.7905691	7.26000	1498.880000000	-9.47	1478.435870677	0.298677000	-2.73	0.298338023	 6.000	 -1.064
1656029774.9910131	7.25200	1498.880000000	-9.47	1478.435870677	0.298647000	-2.73	0.298308058	 6.000	 -0.020
1656029776.6878531	7.24700	1498.730000000	-9.47	1478.287916617	0.298647000	-2.73	0.298308058	 6.000	 -0.590
1656029777.8882980	7.23700	1498.730000000	-9.47	1478.287916617	0.298647000	-2.72	0.298309545	 6.000	 -1.148
1656029779.5941250	7.23200	1498.575000000	-9.47	1478.135030756	0.298647000	-2.72	0.298309545	 6.000	 1.080
1656029780.7919159	7.21700	1498.575000000	-9.47	1478.135030756	0.298616000	-2.73	0.298277093	 6.000	 1.182
1656029782.9897060	7.21000	1498.575000000	-9.47	1478.160853400	0.298586000	-2.72	0.298248614	 6.000	 -0.840
1656029784.1928630	7.20100	1498.425000000	-9.47	1477.987076697	0.298586000	-2.73	0.298247127	 6.000	 -0.956
1656029785.8909769	7.19500	1498.425000000	-9.47	1477.987076697	0.298586000	-2.73	0.298247127	 6.000	 -0.490
1656029787.0977600	7.18700	1498.425000000	-9.47	1478.012896756	0.298586000	-2.73	0.298247127	 6.000	 0.981
1656029788.7922449	7.17900	1498.425000000	-9.47	1477.987076697	0.298555000	-2.73	0.298216162	 6.000	 -1.057
1656029789.9980350	7.17000	1498.270000000	-9.47	1477.834190835	0.298525000	-2.72	0.298187683	 6.000	 1.233
1656029791.6965079	7.16000	1498.270000000	-9.47	1477.860008224	0.298525000	-2.72	0.298187683	 6.000	 -1.153
1656029792.8983090	7.14900	1498.115000000	-9.47	1477.707119692	0.298525000	-2.72	0.298187683	 6.000	 1.006
1656029795.0997980	7.14000	1498.115000000	-9.47	1477.707119692	0.298494000	-2.72	0.298156718	 6.000	 -0.734
1656029796.2992489	7.13300	1498.115000000	-9.47	1477.707119692	0.298494000	-2.72	0.298156718	 6.000	 0.326
1656029797.9997170	7.12600	1498.115000000	-9.47	1477.707119692	0.298494000	-2.72	0.298156718	 6.000	 1.087
1656029799.1965270	7.11700	1497.810000000	-9.47	1477.380465053	0.298464000	-2.72	0.298126752	 6.000	 0.263
1656029800.8963470	7.10900	1497.810000000	-9.47	1477.380465053	0.298464000	-2.72	0.298126752	 6.000	 0.711
1656029802.1021380	7.10000	1497.810000000	-9.47	1477.380465053	0.298464000	-2.72	0.298126752	 6.000	 0.695
1656029803.8006170	7.09100	1497.810000000	-9.47	1477.380465053	0.298433000	-2.73	0.298094300	 6.000	 -0.318
1656029805.0020649	7.08200	1497.660000000	-9.47	1477.232510994	0.298403000	-2.72	0.298067305	 6.000	 -0.176
1656029806.6998980	7.07700	1497.660000000	-9.47	1477.258317871	0.298403000	-2.73	0.298064334	 6.000	 -1.278
1656029807.8964541	7.06800	1497.505000000	-9.47	1477.105429339	0.298403000	-2.72	0.298065821	 6.000	 0.675
1656029809.6011701	7.06300	1497.505000000	-9.47	1477.105429339	0.298403000	-2.73	0.298064334	 6.000	 0.625
1656029810.8026090	7.05500	1497.505000000	-9.47	1477.079625132	0.298372000	-2.73	0.298033370	 6.000	 -1.064
1656029812.5034289	7.04900	1497.355000000	-9.47	1476.931671073	0.298372000	-2.73	0.298033370	 6.000	 -0.992
1656029813.7018850	7.03900	1497.355000000	-9.47	1476.931671073	0.298372000	-2.73	0.298033370	 6.000	 0.115
1656029815.9020240	7.03100	1497.355000000	-9.47	1476.931671073	0.298342000	-2.73	0.298003404	 6.000	 0.914
1656029817.1048191	7.02200	1497.200000000	-9.47	1476.778785211	0.298342000	-2.72	0.298004890	 6.000	 0.109
1656029818.8132660	7.01700	1497.200000000	-9.47	1476.778785211	0.298311000	-2.72	0.297973925	 6.000	 -1.016
1656029820.0030990	7.01100	1497.050000000	-9.47	1476.656627518	0.298281000	-2.73	0.297942473	 6.000	 1.285
1656029821.7025721	7.00400	1497.050000000	-9.47	1476.656627518	0.298281000	-2.72	0.297943959	 6.000	 0.210
1656029822.9023731	6.99300	1496.895000000	-9.47	1476.503738986	0.298281000	-2.72	0.297943959	 6.000	 -0.236
1656029824.6090810	6.98800	1496.895000000	-9.47	1476.477945290	0.298281000	-2.72	0.297943959	 6.000	 -0.993
1656029825.8069990	6.97900	1496.895000000	-9.47	1476.503738986	0.298250000	-2.72	0.297912994	 6.000	 -0.674
1656029828.0047770	6.97200	1496.745000000	-9.47	1476.355782342	0.298220000	-2.72	0.297883028	 6.000	 -1.080
1656029829.2085700	6.96400	1496.745000000	-9.47	1476.355782342	0.298220000	-2.72	0.297884510	 6.000	 0.547
1656029830.9140310	6.95800	1496.590000000	-9.47	1476.202893809	0.298220000	-2.72	0.297884510	 6.000	 0.690
1656029832.1108410	6.94700	1496.590000000	-9.47	1476.202893809	0.298189000	-2.72	0.297852063	 6.000	 -0.741
1656029833.8126659	6.94100	1496.590000000	-9.47	1476.202893809	0.298189000	-2.72	0.297852063	 6.000	 1.107
1656029835.0071230	6.93400	1496.440000000	-9.47	1476.054937165	0.298159000	-2.72	0.297822097	 6.000	 -0.130
1656029836.7075951	6.92800	1496.440000000	-9.47	1476.054937165	0.298189000	-2.72	0.297852063	 6.000	 -0.547
1656029837.9103899	6.92200	1496.440000000	-9.47	1476.054937165	0.298159000	-2.72	0.297823579	 6.000	 0.934
1656029839.6092229	6.91400	1496.285000000	-9.47	1475.902048633	0.298128000	-2.72	0.297791132	 6.000	 0.906
1656029840.8090229	6.90000	1496.135000000	-9.47	1475.754091989	0.298098000	-2.72	0.297761166	 6.000	 -1.095
1656029843.0071540	6.89600	1496.135000000	-9.47	1475.754091989	0.298098000	-2.72	0.297761166	 6.000	 0.514
1656029844.2089651	6.88900	1495.980000000	-9.47	1475.601203457	0.298098000	-2.72	0.297761166	 6.000	 -1.054
1656029845.9060869	6.88200	1495.980000000	-9.47	1475.601203457	0.298098000	-2.72	0.297761166	 6.000	 -0.654
1656029847.1132259	6.87400	1495.830000000	-9.47	1475.427471468	0.298067000	-2.72	0.297731683	 6.000	 -0.633
1656029848.8093519	6.86700	1495.830000000	-9.47	1475.453246812	0.298067000	-2.73	0.297728716	 6.000	 1.535
1656029850.0101540	6.85900	1495.830000000	-9.47	1475.453246812	0.298067000	-2.73	0.297728716	 6.000	 0.203
1656029851.7109799	6.85300	1495.830000000	-9.47	1475.453246812	0.298037000	-2.73	0.297698750	 6.000	 -0.960
1656029852.9154129	6.84300	1495.675000000	-9.47	1475.300358280	0.298037000	-2.72	0.297701716	 6.000	 -1.034
1656029854.6172581	6.84000	1495.675000000	-9.47	1475.300358280	0.298037000	-2.72	0.297700235	 6.000	 1.332
1656029855.8097041	6.82800	1495.525000000	-9.47	1475.152401636	0.298006000	-2.73	0.297667785	 6.000	 -0.671
1656029857.5071800	6.82500	1495.525000000	-9.47	1475.152401636	0.298006000	-2.72	0.297669270	 6.000	 0.606
1656029858.7103360	6.81100	1495.370000000	-9.47	1474.999513104	0.297976000	-2.72	0.297639304	 6.000	 0.972
1656029860.9031310	6.80500	1495.220000000	-9.47	1474.851556460	0.297945000	-2.72	0.297608339	 6.000	 -0.570
1656029862.1139071	6.80100	1495.220000000	-9.47	1474.851556460	0.297945000	-2.72	0.297609820	 6.000	 1.220
1656029863.8057640	6.79300	1495.220000000	-9.47	1474.851556460	0.297945000	-2.72	0.297608339	 6.000	 0.511
1656029865.0111899	6.78300	1495.065000000	-9.47	1474.698667927	0.297915000	-2.72	0.297578373	 6.000	 -0.545
1656029866.7106631	6.77500	1495.065000000	-9.47	1474.698667927	0.297915000	-2.72	0.297578373	 6.000	 0.659
1656029867.9174471	6.76900	1494.915000000	-9.47	1474.550711283	0.297915000	-2.72	0.297578373	 6.000	 -0.083
1656029869.6192670	6.76200	1494.915000000	-9.47	1474.550711283	0.297884000	-2.72	0.297547408	 6.000	 -0.223
1656029870.8117371	6.75100	1494.915000000	-9.47	1474.550711283	0.297884000	-2.72	0.297547408	 6.000	 1.179
1656029873.0118730	6.74600	1494.915000000	-9.47	1474.550711283	0.297853000	-2.72	0.297516443	 6.000	 -0.041
1656029874.2120240	6.73800	1494.760000000	-9.47	1474.397822751	0.297853000	-2.72	0.297517923	 6.000	 -0.236
1656029875.9115119	6.73100	1494.610000000	-9.47	1474.249866107	0.297823000	-2.72	0.297486477	 6.000	 -0.721
1656029877.1169381	6.72200	1494.610000000	-9.47	1474.249866107	0.297823000	-2.72	0.297487957	 6.000	 0.728
1656029878.8154140	6.71800	1494.610000000	-9.47	1474.249866107	0.297823000	-2.72	0.297486477	 6.000	 -0.648
1656029880.0142181	6.70300	1494.305000000	-9.47	1473.949020930	0.297792000	-2.72	0.297455512	 6.000	 -0.909
1656029881.7116950	6.70300	1494.305000000	-9.47	1473.949020930	0.297762000	-2.72	0.297425545	 6.000	 -1.080
1656029882.9184790	6.69200	1494.305000000	-9.47	1473.949020930	0.297762000	-2.72	0.297427026	 6.000	 0.851
1656029884.6173120	6.68700	1494.305000000	-9.47	1473.949020930	0.297762000	-2.72	0.297427026	 6.000	 1.105
1656029885.8157640	6.67200	1494.150000000	-9.47	1473.796132398	0.297731000	-2.72	0.297396061	 6.000	 -0.840
1656029888.0172460	6.67000	1494.150000000	-9.47	1473.796132398	0.297731000	-2.72	0.297394580	 6.000	 -1.106
1656029889.2147059	6.65800	1494.000000000	-9.47	1473.648175754	0.297701000	-2.72	0.297364614	 6.000	 0.075
1656029890.9165370	6.65300	1494.000000000	-9.46	1473.673903404	0.297701000	-2.72	0.297364614	 6.000	 -1.088
1656029892.1253190	6.64800	1494.000000000	-9.46	1473.673903404	0.297701000	-2.72	0.297364614	 6.000	 1.123
1656029893.8154490	6.64000	1494.000000000	-9.46	1473.673903404	0.297670000	-2.72	0.297335129	 6.000	 -0.183
1656029895.0162539	6.62900	1493.845000000	-9.47	1473.495287221	0.297670000	-2.72	0.297333649	 6.000	 1.138
1656029896.7180660	6.62400	1493.845000000	-9.47	1473.495287221	0.297640000	-2.71	0.297306639	 6.000	 0.875
1656029897.9145341	6.61700	1493.690000000	-9.47	1473.342398689	0.297640000	-2.72	0.297303683	 6.000	 0.947
1656029899.6199880	6.60900	1493.690000000	-9.47	1473.342398689	0.297640000	-2.72	0.297303683	 6.000	 0.662
1656029900.8171520	6.60200	1493.540000000	-9.47	1473.194442045	0.297609000	-2.71	0.297275674	 6.000	 1.351
1656029902.5132771	6.59300	1493.540000000	-9.46	1473.220161774	0.297609000	-2.71	0.297275674	 6.000	 1.154
1656029903.7180700	6.58600	1493.385000000	-9.47	1473.041553513	0.297579000	-2.72	0.297242752	 6.000	 -0.946
1656029905.9185691	6.58000	1493.235000000	-9.47	1472.893596869	0.297548000	-2.72	0.297213266	 6.000	 -0.786
1656029907.1239970	6.57000	1493.235000000	-9.47	1472.893596869	0.297548000	-2.72	0.297211787	 6.000	 0.928
1656029908.8164871	6.56300	1493.235000000	-9.47	1472.893596869	0.297548000	-2.72	0.297213266	 6.000	 0.422
1656029910.0302539	6.55500	1493.080000000	-9.47	1472.740708336	0.297518000	-2.72	0.297183300	 6.000	 -1.118
1656029911.7240951	6.54600	1493.080000000	-9.47	1472.740708336	0.297518000	-2.72	0.297181821	 6.000	 0.204
1656029912.9229031	6.54000	1492.930000000	-9.47	1472.592751692	0.297518000	-2.72	0.297181821	 6.000	 -1.193
1656029914.6243670	6.53000	1492.930000000	-9.47	1472.592751692	0.297487000	-2.72	0.297152335	 6.000	 1.198
1656029915.8171971	6.52400	1492.930000000	-9.46	1472.618460916	0.297487000	-2.72	0.297152335	 6.000	 0.737
1656029917.5262830	6.51700	1492.930000000	-9.46	1472.618460916	0.297457000	-2.71	0.297123844	 6.000	 1.037
1656029918.7224691	6.51000	1492.775000000	-9.47	1472.439863160	0.297457000	-2.72	0.297122369	 6.000	 0.945
1656029920.9192441	6.50000	1492.625000000	-9.47	1472.291906516	0.297426000	-2.72	0.297091404	 6.000	 1.381
1656029922.1240330	6.49200	1492.625000000	-9.46	1472.317610487	0.297426000	-2.71	0.297092879	 6.000	 0.874
1656029923.8218639	6.48400	1492.625000000	-9.46	1472.317610487	0.297396000	-2.72	0.297061437	 6.000	 1.234
1656029925.0176699	6.47800	1492.470000000	-9.46	1472.164719286	0.297396000	-2.72	0.297061437	 6.000	 0.043
1656029926.7211440	6.47100	1492.320000000	-9.46	1472.016760059	0.297365000	-2.72	0.297030472	 6.000	 0.545
1656029927.9199541	6.46400	1492.320000000	-9.46	1472.016760059	0.297365000	-2.72	0.297030472	 6.000	 1.228
1656029929.6240499	6.45400	1492.165000000	-9.47	1471.838172807	0.297335000	-2.72	0.297000506	 6.000	 -0.143
1656029930.8208630	6.44700	1492.165000000	-9.46	1471.863868857	0.297335000	-2.72	0.296999028	 6.000	 -0.948
1656029933.0210011	6.44100	1492.165000000	-9.46	1471.863868857	0.297335000	-2.72	0.297000506	 6.000	 0.908
1656029934.2231541	6.43100	1492.015000000	-9.46	1471.715909630	0.297335000	-2.72	0.296999028	 6.000	 -0.915
1656029935.9252651	6.42200	1492.015000000	-9.46	1471.715909630	0.297304000	-2.72	0.296968063	 6.000	 -0.938
1656029937.1240721	6.41600	1491.860000000	-9.46	1471.563018428	0.297274000	-2.71	0.296941049	 6.000	 1.180
1656029938.8219020	6.41000	1491.860000000	-9.46	1471.563018428	0.297274000	-2.72	0.296938097	 6.000	 -0.347
1656029940.0243440	6.39900	1491.860000000	-9.47	1471.537327631	0.297274000	-2.72	0.296938097	 6.000	 -0.449
1656029941.7208240	6.39200	1491.710000000	-9.47	1471.389370986	0.297213000	-2.72	0.296878643	 6.000	 1.007
1656029942.9247739	6.38500	1491.555000000	-9.47	1471.236482454	0.297213000	-2.72	0.296878643	 6.000	 1.127
1656029944.6280789	6.37800	1491.555000000	-9.46	1471.262168000	0.297213000	-2.72	0.296878643	 6.000	 -1.006
1656029945.8212550	6.36900	1491.405000000	-9.46	1471.114208772	0.297182000	-2.71	0.296849152	 6.000	 1.256
1656029947.5227489	6.35700	1491.405000000	-9.46	1471.114208772	0.297152000	-2.72	0.296817712	 6.000	 -0.784
1656029948.7243090	6.34700	1491.250000000	-9.47	1470.935637278	0.297152000	-2.72	0.296817712	 6.000	 1.214
1656029950.9234631	6.34300	1491.250000000	-9.47	1470.935637278	0.297152000	-2.72	0.296817712	 6.000	 -1.133
1656029952.1271060	6.33000	1491.100000000	-9.46	1470.813358344	0.297121000	-2.71	0.296788221	 6.000	 -0.095
1656029953.8256390	6.32300	1491.100000000	-9.46	1470.813358344	0.297121000	-2.72	0.296786747	 6.000	 -1.128
1656029955.0263770	6.31300	1490.945000000	-9.46	1470.660467142	0.297091000	-2.72	0.296756781	 6.000	 -0.077
1656029956.7361879	6.30800	1490.945000000	-9.46	1470.660467142	0.297091000	-2.72	0.296756781	 6.000	 0.371
1656029957.9250100	6.30000	1490.945000000	-9.46	1470.660467142	0.297060000	-2.72	0.296725815	 6.000	 -0.965
1656029959.6321089	6.28600	1490.640000000	-9.46	1470.359616713	0.297029000	-2.72	0.296694850	 6.000	 -0.768
1656029960.8299160	6.28000	1490.640000000	-9.46	1470.359616713	0.297029000	-2.72	0.296694850	 6.000	 -0.180
1656029963.0353920	6.27300	1490.490000000	-9.46	1470.211657486	0.296999000	-2.72	0.296664884	 6.000	 -0.721
1656029964.2318530	6.26400	1490.490000000	-9.46	1470.211657486	0.296999000	-2.71	0.296666357	 6.000	 -0.424
1656029965.9373090	6.25700	1490.335000000	-9.46	1470.058766285	0.296999000	-2.72	0.296663408	 6.000	 1.101
1656029967.1391051	6.24700	1490.335000000	-9.46	1470.058766285	0.296968000	-2.72	0.296633919	 6.000	 0.892
1656029968.8365860	6.24300	1490.335000000	-9.46	1470.058766285	0.296938000	-2.72	0.296603953	 6.000	 1.398
1656029970.0347309	6.23700	1490.185000000	-9.46	1469.910807057	0.296938000	-2.72	0.296603953	 6.000	 -0.904
1656029971.7348640	6.22800	1490.030000000	-9.46	1469.757915856	0.296938000	-2.71	0.296605426	 6.000	 1.027
1656029972.9386570	6.21700	1490.030000000	-9.46	1469.757915856	0.296877000	-2.71	0.296544494	 6.000	 -0.180
1656029974.6431160	6.21300	1490.030000000	-9.46	1469.757915856	0.296877000	-2.71	0.296544494	 6.000	 0.955
1656029975.8409231	6.20000	1489.725000000	-9.46	1469.457065427	0.296846000	-2.72	0.296512056	 6.000	 -0.275
1656029978.0354230	6.19600	1489.725000000	-9.46	1469.457065427	0.296846000	-2.71	0.296513529	 6.000	 -0.132
1656029979.2372310	6.18600	1489.725000000	-9.46	1469.482703345	0.296816000	-2.72	0.296482090	 6.000	 0.932
1656029980.9406929	6.18100	1489.575000000	-9.46	1469.309106200	0.296816000	-2.72	0.296482090	 6.000	 0.674
1656029982.1404951	6.17700	1489.420000000	-9.46	1469.156214998	0.296816000	-2.72	0.296482090	 6.000	 -0.229
1656029983.8366201	6.16700	1489.420000000	-9.46	1469.156214998	0.296785000	-2.72	0.296451125	 6.000	 -1.027
1656029985.0384221	6.15900	1489.265000000	-9.46	1469.003323797	0.296785000	-2.72	0.296451125	 6.000	 0.538
1656029986.7408850	6.15500	1489.265000000	-9.46	1469.003323797	0.296785000	-2.72	0.296451125	 6.000	 0.319
1656029987.9450281	6.14300	1489.265000000	-9.46	1469.003323797	0.296755000	-2.72	0.296421159	 6.000	 -0.367
1656029989.6435151	6.13700	1489.115000000	-9.46	1468.855364570	0.296694000	-2.71	0.296361699	 6.000	 0.782
1656029990.8413160	6.12600	1488.960000000	-9.46	1468.702473368	0.296694000	-2.71	0.296361699	 6.000	 1.176
1656029993.0450881	6.12200	1488.810000000	-9.46	1468.554514141	0.296694000	-2.71	0.296361699	 6.000	 -0.386
1656029994.2448919	6.11500	1488.810000000	-9.46	1468.554514141	0.296663000	-2.72	0.296329262	 6.000	 1.037
1656029995.9453590	6.10600	1488.655000000	-9.46	1468.401622940	0.296663000	-2.71	0.296330734	 6.000	 0.494
1656029997.1485181	6.10000	1488.655000000	-9.46	1468.401622940	0.296633000	-2.72	0.296299296	 6.000	 -1.002
1656029998.8446369	6.09600	1488.655000000	-9.46	1468.401622940	0.296633000	-2.72	0.296299296	 6.000	 0.067
1656030000.0434520	6.08200	1488.505000000	-9.46	1468.253663712	0.296602000	-2.72	0.296268331	 6.000	 0.405
1656030001.7429130	6.07900	1488.505000000	-9.46	1468.253663712	0.296602000	-2.71	0.296269802	 6.000	 -0.328
1656030002.9457121	6.06800	1488.350000000	-9.46	1468.126386765	0.296572000	-2.71	0.296239836	 6.000	 -0.948
1656030004.6501679	6.06600	1488.350000000	-9.46	1468.100772511	0.296572000	-2.71	0.296239836	 6.000	 -0.827
1656030005.8463261	6.05300	1488.200000000	-9.46	1467.952813284	0.296541000	-2.71	0.296208870	 6.000	 -0.590
1656030007.5584199	6.04900	1488.200000000	-9.46	1467.952813284	0.296511000	-2.71	0.296178904	 6.000	 -0.860
1656030008.7532339	6.03900	1488.045000000	-9.46	1467.799922082	0.296511000	-2.71	0.296178904	 6.000	 -0.056
1656030010.9493840	6.03000	1487.895000000	-9.46	1467.677569278	0.296480000	-2.71	0.296149406	 6.000	 1.264
1656030012.1501839	6.02400	1487.740000000	-9.46	1467.524675409	0.296480000	-2.71	0.296147939	 6.000	 1.180
1656030013.8450310	6.01800	1487.740000000	-9.46	1467.524675409	0.296450000	-2.71	0.296117972	 6.000	 1.076
1656030015.0428240	6.00700	1487.740000000	-9.46	1467.524675409	0.296419000	-2.72	0.296085537	 6.000	 -0.794
1656030016.7449419	6.00100	1487.590000000	-9.46	1467.351112426	0.296419000	-2.71	0.296087007	 6.000	 -0.485
1656030017.9427531	5.99200	1487.435000000	-9.46	1467.198221225	0.296389000	-2.71	0.296057040	 6.000	 -0.724
1656030019.6475630	5.98600	1487.435000000	-9.46	1467.223819731	0.296389000	-2.71	0.296057040	 6.000	 -0.136
1656030020.8470149	5.97400	1487.285000000	-9.46	1467.075857923	0.296358000	-2.71	0.296026075	 6.000	 -0.202
1656030023.0461590	5.97100	1487.285000000	-9.46	1467.075857923	0.296328000	-2.71	0.295996109	 6.000	 1.000
1656030024.2489491	5.96100	1487.130000000	-9.46	1466.897370796	0.296328000	-2.71	0.295996109	 6.000	 0.949
1656030025.9477861	5.95500	1486.980000000	-9.46	1466.749411569	0.296297000	-2.71	0.295965144	 6.000	 -0.161
1656030027.1492219	5.94700	1486.980000000	-9.46	1466.775002245	0.296267000	-2.71	0.295935177	 6.000	 0.518
1656030028.8478351	5.93700	1486.980000000	-9.46	1466.749411569	0.296267000	-2.71	0.295935177	 6.000	 -0.986
1656030030.0504949	5.93200	1486.825000000	-9.46	1466.622108376	0.296267000	-2.71	0.295935177	 6.000	 0.083
1656030031.7579451	5.92600	1486.675000000	-9.46	1466.474146567	0.296236000	-2.71	0.295904212	 6.000	 -0.650
1656030032.9497681	5.91400	1486.520000000	-9.46	1466.321252698	0.296206000	-2.71	0.295874245	 6.000	 -0.349
1656030034.6532340	5.91300	1486.520000000	-9.46	1466.321252698	0.296206000	-2.71	0.295874245	 6.000	 0.998
1656030035.8523910	5.89600	1486.370000000	-9.46	1466.173290889	0.296206000	-2.71	0.295875712	 6.000	 1.043
1656030037.5558560	5.89800	1486.370000000	-9.46	1466.173290889	0.296206000	-2.71	0.295875712	 6.000	 -0.720
1656030038.7562971	5.88500	1486.215000000	-9.46	1466.020397020	0.296144000	-2.71	0.295812315	 6.000	 0.204
1656030040.9587860	5.87900	1486.065000000	-9.46	1465.872435212	0.296144000	-2.71	0.295813781	 6.000	 0.610
1656030042.1622241	5.87100	1486.065000000	-9.46	1465.872435212	0.296114000	-2.71	0.295782349	 6.000	 0.038
1656030043.8587041	5.86000	1485.910000000	-9.46	1465.719541343	0.296083000	-2.71	0.295751383	 6.000	 1.359
1656030045.0588479	5.85700	1485.910000000	-9.46	1465.719541343	0.296083000	-2.71	0.295751383	 6.000	 1.138
1656030046.7633200	5.85000	1485.760000000	-9.46	1465.571579534	0.296053000	-2.71	0.295721417	 6.000	 -1.042
1656030047.9567850	5.83800	1485.760000000	-9.46	1465.571579534	0.296053000	-2.71	0.295721417	 6.000	 -1.159
1656030049.6622419	5.83600	1485.605000000	-9.46	1465.418685665	0.296022000	-2.71	0.295690452	 6.000	 -0.429
1656030050.8593960	5.82400	1485.455000000	-9.46	1465.270723856	0.296022000	-2.71	0.295691917	 6.000	 1.231
1656030053.0601900	5.81200	1485.300000000	-9.46	1465.117829987	0.295961000	-2.71	0.295629520	 6.000	 -0.905
1656030054.2633419	5.80500	1485.145000000	-9.46	1464.964936118	0.295961000	-2.71	0.295629520	 6.000	 0.571
1656030055.9628091	5.80000	1485.145000000	-9.46	1464.964936118	0.295931000	-2.71	0.295599553	 6.000	 1.167
1656030057.1695960	5.79200	1485.145000000	-9.46	1464.964936118	0.295931000	-2.71	0.295599553	 6.000	 1.108
1656030058.8581049	5.78700	1484.995000000	-9.46	1464.816974309	0.295931000	-2.71	0.295599553	 6.000	 -0.467
1656030060.0615311	5.77800	1484.995000000	-9.46	1464.816974309	0.295900000	-2.71	0.295568588	 6.000	 -1.202
1656030061.7620020	5.76900	1484.840000000	-9.46	1464.664080440	0.295870000	-2.71	0.295540086	 6.000	 1.062
1656030062.9578221	5.76200	1484.840000000	-9.46	1464.664080440	0.295870000	-2.71	0.295538622	 6.000	 -0.138
1656030065.1599531	5.74700	1484.690000000	-9.46	1464.516118632	0.295839000	-2.71	0.295509121	 6.000	 0.934
1656030066.3587530	5.74400	1484.535000000	-9.46	1464.363224763	0.295839000	-2.71	0.295507657	 6.000	 -1.063
1656030068.0592289	5.74000	1484.535000000	-9.46	1464.363224763	0.295809000	-2.72	0.295476223	 6.000	 -0.946
1656030069.2670071	5.72700	1484.230000000	-9.46	1464.062369085	0.295778000	-2.71	0.295448189	 6.000	 0.495
1656030070.9618449	5.72400	1484.230000000	-9.46	1464.062369085	0.295778000	-2.71	0.295448189	 6.000	 0.950
1656030072.1682780	5.71300	1484.230000000	-9.46	1464.062369085	0.295748000	-2.71	0.295418222	 6.000	 0.378
1656030073.8607690	5.70700	1484.080000000	-9.46	1463.914407276	0.295748000	-2.71	0.295418222	 6.000	 0.672
1656030075.0615680	5.70200	1484.080000000	-9.46	1463.914407276	0.295717000	-2.71	0.295385793	 6.000	 -0.725
1656030076.7630351	5.69200	1483.925000000	-9.46	1463.761513407	0.295687000	-2.71	0.295357290	 6.000	 0.813
1656030077.9661851	5.68200	1483.775000000	-9.46	1463.613551599	0.295687000	-2.71	0.295355827	 6.000	 1.510
1656030079.6682949	5.67600	1483.775000000	-9.45	1463.639071067	0.295656000	-2.71	0.295326325	 6.000	 -0.606
1656030080.8641100	5.66600	1483.775000000	-9.45	1463.639071067	0.295626000	-2.71	0.295296358	 6.000	 -0.775
1656030083.0692339	5.66200	1483.470000000	-9.46	1463.312695921	0.295626000	-2.71	0.295294895	 6.000	 0.253
1656030084.2614191	5.65100	1483.470000000	-9.46	1463.312695921	0.295565000	-2.71	0.295233963	 6.000	 -0.766
1656030085.9665129	5.64300	1483.315000000	-9.46	1463.159802052	0.295565000	-2.71	0.295233963	 6.000	 -0.482
1656030087.1723020	5.63600	1483.165000000	-9.46	1463.011840243	0.295565000	-2.71	0.295233963	 6.000	 0.863
1656030088.8661411	5.63100	1483.165000000	-9.46	1463.011840243	0.295534000	-2.71	0.295204461	 6.000	 -0.845
1656030090.0685849	5.61800	1483.165000000	-9.46	1463.011840243	0.295504000	-2.71	0.295174494	 6.000	 0.733
1656030091.7694120	5.61200	1483.010000000	-9.46	1462.858946374	0.295504000	-2.71	0.295174494	 6.000	 1.412
1656030092.9702129	5.59900	1482.860000000	-9.46	1462.710984565	0.295473000	-2.71	0.295143529	 6.000	 0.032
1656030094.6726761	5.59400	1482.860000000	-9.46	1462.710984565	0.295443000	-2.71	0.295113562	 6.000	 -0.767
1656030095.8704970	5.58600	1482.555000000	-9.46	1462.410128888	0.295443000	-2.71	0.295113562	 6.000	 0.476
1656030098.0722630	5.57800	1482.555000000	-9.46	1462.410128888	0.295412000	-2.71	0.295081135	 6.000	 0.002
1656030099.2720630	5.56100	1482.250000000	-9.45	1462.134766450	0.295382000	-2.71	0.295051168	 6.000	 1.277
1656030100.9665470	5.55900	1482.250000000	-9.45	1462.134766450	0.295351000	-2.71	0.295020203	 6.000	 0.808
1656030102.1723340	5.55400	1482.250000000	-9.45	1462.134766450	0.295351000	-2.71	0.295021665	 6.000	 1.134
1656030103.8698151	5.54100	1482.095000000	-9.46	1461.956379341	0.295321000	-2.71	0.294991698	 6.000	 0.236
1656030105.0729549	5.53800	1482.095000000	-9.46	1461.956379341	0.295321000	-2.71	0.294990237	 6.000	 -0.890
1656030106.7780640	5.52800	1481.640000000	-9.45	1461.533044603	0.295290000	-2.71	0.294960733	 6.000	 0.757
1656030107.9762290	5.52200	1481.640000000	-9.45	1461.533044603	0.295229000	-2.70	0.294901259	 6.000	 0.927
1656030109.6787021	5.51500	1481.640000000	-9.45	1461.533044603	0.295229000	-2.71	0.294898340	 6.000	 0.991
1656030110.8801351	5.50500	1481.485000000	-9.46	1461.354667985	0.295198000	-2.71	0.294868835	 6.000	 0.374
1656030113.0732939	5.49400	1481.180000000	-9.46	1461.053812308	0.295168000	-2.71	0.294838869	 6.000	 1.167
1656030114.2711041	5.48900	1481.180000000	-9.45	1461.079287145	0.295137000	-2.71	0.294807904	 6.000	 -1.008
1656030115.9745610	5.48800	1481.180000000	-9.45	1461.079287145	0.295137000	-2.71	0.294807904	 6.000	 1.166
1656030117.1733680	5.47400	1481.030000000	-9.46	1460.905850499	0.295107000	-2.71	0.294776476	 6.000	 0.233
1656030118.8701961	5.47000	1480.875000000	-9.46	1460.752956630	0.295107000	-2.70	0.294779394	 6.000	 1.131
1656030120.0696499	5.45700	1480.570000000	-9.45	1460.477565298	0.295046000	-2.70	0.294718462	 6.000	 -0.157
1656030121.7681270	5.45500	1480.570000000	-9.45	1460.477565298	0.295046000	-2.71	0.294715545	 6.000	 -0.751
1656030122.9699280	5.44100	1480.570000000	-9.45	1460.477565298	0.295015000	-2.71	0.294686040	 6.000	 1.101
1656030124.6743841	5.43400	1480.265000000	-9.45	1460.176704374	0.294985000	-2.71	0.294656073	 6.000	 1.406
1656030125.8715501	5.43200	1480.265000000	-9.45	1460.176704374	0.294985000	-2.71	0.294656073	 6.000	 0.467
1656030128.0696990	5.42000	1480.110000000	-9.45	1460.023807840	0.294954000	-2.71	0.294625108	 6.000	 -0.987
1656030129.2724950	5.41000	1479.960000000	-9.46	1459.850389597	0.294924000	-2.71	0.294595141	 6.000	 -0.631
1656030130.9716029	5.40800	1479.960000000	-9.46	1459.850389597	0.294893000	-2.71	0.294564176	 6.000	 1.006
1656030132.1827321	5.39600	1479.805000000	-9.45	1459.722946916	0.294863000	-2.71	0.294534209	 6.000	 0.557
1656030133.8718791	5.39800	1479.805000000	-9.45	1459.722946916	0.294863000	-2.71	0.294534209	 6.000	 0.532
1656030135.0710289	5.38600	1479.655000000	-9.45	1459.574982527	0.294832000	-2.71	0.294503244	 6.000	 -1.221
1656030136.7741439	5.37900	1479.500000000	-9.45	1459.422085993	0.294802000	-2.71	0.294473277	 6.000	 -0.783
1656030137.9782839	5.37200	1479.350000000	-9.45	1459.274121604	0.294802000	-2.71	0.294473277	 6.000	 0.481
1656030139.6807580	5.35800	1479.350000000	-9.45	1459.274121604	0.294771000	-2.71	0.294442312	 6.000	 -0.132
1656030140.8752201	5.35400	1479.195000000	-9.45	1459.121225069	0.294741000	-2.70	0.294413801	 6.000	 0.849
1656030142.5780380	5.34800	1479.195000000	-9.45	1459.121225069	0.294710000	-2.71	0.294381380	 6.000	 1.502
1656030143.7768481	5.33800	1478.890000000	-9.45	1458.820364146	0.294680000	-2.70	0.294352868	 6.000	 -1.085
1656030145.9799850	5.33000	1478.890000000	-9.45	1458.820364146	0.294680000	-2.71	0.294351413	 6.000	 1.260
1656030147.1864040	5.32100	1478.585000000	-9.45	1458.519503222	0.294619000	-2.71	0.294290481	 6.000	 -0.176
1656030148.8802459	5.31600	1478.585000000	-9.45	1458.519503222	0.294619000	-2.71	0.294290481	 6.000	 0.457
1656030150.0826890	5.30300	1478.435000000	-9.45	1458.371538834	0.294588000	-2.71	0.294259516	 6.000	 1.268
1656030151.7775309	5.29900	1478.435000000	-9.45	1458.371538834	0.294588000	-2.71	0.294259516	 6.000	 -1.231
1656030152.9803231	5.29500	1478.280000000	-9.45	1458.218642299	0.294558000	-2.71	0.294229549	 6.000	 -0.523
1656030154.6864221	5.28200	1477.975000000	-9.44	1457.943185102	0.294527000	-2.71	0.294198584	 6.000	 0.898
1656030155.8905661	5.27700	1477.975000000	-9.45	1457.917781375	0.294497000	-2.71	0.294168617	 6.000	 1.024
1656030158.0827241	5.26700	1477.825000000	-9.45	1457.769816987	0.294466000	-2.71	0.294137652	 6.000	 -0.779
1656030159.2885230	5.26400	1477.670000000	-9.45	1457.616920452	0.294466000	-2.71	0.294137652	 6.000	 0.943
1656030160.9889841	5.25500	1477.520000000	-9.44	1457.494351969	0.294436000	-2.70	0.294109139	 6.000	 1.013
1656030162.1877940	5.24600	1477.365000000	-9.45	1457.316059529	0.294405000	-2.70	0.294078174	 6.000	 0.522
1656030163.8822670	5.24000	1477.365000000	-9.45	1457.316059529	0.294374000	-2.71	0.294045754	 6.000	 1.030
1656030165.0807290	5.23000	1477.060000000	-9.45	1457.015198605	0.294344000	-2.70	0.294017241	 6.000	 -0.073
1656030166.7775619	5.22100	1477.060000000	-9.45	1457.015198605	0.294313000	-2.70	0.293986276	 6.000	 0.144
1656030167.9790039	5.21900	1477.060000000	-9.45	1457.015198605	0.294313000	-2.70	0.293986276	 6.000	 -1.023
1656030169.6937971	5.20900	1476.910000000	-9.45	1456.867234217	0.294283000	-2.70	0.293956309	 6.000	 -1.123
1656030170.8842649	5.19200	1476.605000000	-9.44	1456.591753472	0.294222000	-2.70	0.293895377	 6.000	 1.048
1656030173.0817721	5.19200	1476.450000000	-9.44	1456.438854273	0.294222000	-2.70	0.293895377	 6.000	 -0.991
1656030174.2871990	5.18300	1476.450000000	-9.44	1456.438854273	0.294222000	-2.70	0.293895377	 6.000	 -1.082
1656030175.9856720	5.17900	1476.295000000	-9.44	1456.285955074	0.294191000	-2.70	0.293864411	 6.000	 -0.577
1656030177.1894650	5.16700	1476.145000000	-9.44	1456.137988107	0.294161000	-2.70	0.293834445	 6.000	 -1.219
1656030178.8873069	5.15500	1475.990000000	-9.44	1455.985088908	0.294100000	-2.70	0.293773512	 6.000	 -0.990
1656030180.0837519	5.15200	1475.840000000	-9.45	1455.811754911	0.294100000	-2.71	0.293772060	 6.000	 0.710
1656030181.7822289	5.15200	1475.840000000	-9.45	1455.811754911	0.294100000	-2.70	0.293773512	 6.000	 0.813
1656030182.9840360	5.13700	1475.685000000	-9.44	1455.684222742	0.294069000	-2.69	0.293743996	 6.000	 1.132
1656030184.6888421	5.13100	1475.535000000	-9.44	1455.536255775	0.294039000	-2.70	0.293712580	 6.000	 -0.591
1656030185.8836570	5.11800	1475.380000000	-9.45	1455.357997453	0.293978000	-2.70	0.293651648	 6.000	 -0.449
1656030188.0844369	5.11300	1475.230000000	-9.45	1455.210033064	0.293947000	-2.70	0.293620682	 6.000	 -0.509
1656030189.2875919	5.10200	1475.075000000	-9.44	1455.082490410	0.293947000	-2.70	0.293620682	 6.000	 0.604
1656030190.9840679	5.09400	1474.925000000	-9.44	1454.934523443	0.293886000	-2.70	0.293559750	 6.000	 1.287
1656030192.1914971	5.08800	1474.770000000	-9.44	1454.781624244	0.293886000	-2.70	0.293559750	 6.000	 -0.201
1656030193.8889730	5.08000	1474.770000000	-9.44	1454.781624244	0.293856000	-2.69	0.293531231	 6.000	 0.755
1656030195.0931239	5.06700	1474.465000000	-9.44	1454.480758079	0.293825000	-2.70	0.293498818	 6.000	 0.053
1656030196.7902429	5.06500	1474.465000000	-9.44	1454.480758079	0.293795000	-2.71	0.293467400	 6.000	 1.456
1656030197.9950340	5.05800	1474.315000000	-9.44	1454.332791112	0.293764000	-2.70	0.293437885	 6.000	 -1.281
1656030199.7034810	5.04900	1474.160000000	-9.44	1454.179891913	0.293734000	-2.70	0.293407919	 6.000	 0.843
1656030200.8996511	5.03800	1474.010000000	-9.44	1454.031924946	0.293703000	-2.69	0.293378400	 6.000	 0.027
1656030203.0997880	5.02800	1473.855000000	-9.44	1453.879025747	0.293673000	-2.70	0.293346986	 6.000	 0.126
1656030204.2995970	5.02000	1473.550000000	-9.44	1453.578159581	0.293642000	-2.70	0.293316021	 6.000	 -1.066
1656030206.0096791	5.01700	1473.550000000	-9.44	1453.578159581	0.293612000	-2.69	0.293287501	 6.000	 -0.898
1656030207.1978569	5.00900	1473.400000000	-9.44	1453.430192614	0.293612000	-2.69	0.293287501	 6.000	 0.615
1656030208.8933470	4.99800	1473.095000000	-9.44	1453.129326448	0.293520000	-2.69	0.293195602	 6.000	 0.059
1656030210.0981419	4.99700	1473.095000000	-9.44	1453.129326448	0.293550000	-2.70	0.293224123	 6.000	 -0.344
1656030211.7912760	4.98000	1472.940000000	-9.44	1452.976427249	0.293489000	-2.69	0.293164637	 6.000	 -0.954
1656030212.9954181	4.97400	1472.790000000	-9.44	1452.828460283	0.293489000	-2.70	0.293163191	 6.000	 -0.021
1656030214.6968901	4.96900	1472.485000000	-9.44	1452.527594117	0.293428000	-2.70	0.293102258	 6.000	 -1.167
1656030215.8986950	4.96700	1472.485000000	-9.44	1452.527594117	0.293398000	-2.70	0.293072292	 6.000	 1.073
1656030218.0988269	4.95600	1472.180000000	-9.44	1452.226727951	0.293367000	-2.70	0.293041326	 6.000	 -0.928
1656030219.2956440	4.94300	1472.025000000	-9.44	1452.099114285	0.293306000	-2.69	0.292983281	 6.000	 1.096
1656030221.0050740	4.94100	1472.025000000	-9.44	1452.099114285	0.293306000	-2.69	0.292981839	 6.000	 -1.049
1656030222.2035329	4.93100	1471.720000000	-9.44	1451.772962586	0.293245000	-2.69	0.292920906	 6.000	 0.288
1656030223.8980191	4.92700	1471.565000000	-9.44	1451.620063387	0.293245000	-2.69	0.292920906	 6.000	 -0.118
1656030225.0991731	4.91300	1471.415000000	-9.44	1451.472096420	0.293184000	-2.69	0.292859974	 6.000	 0.930
1656030226.7984231	4.90900	1471.260000000	-9.44	1451.344469613	0.293184000	-2.69	0.292859974	 6.000	 0.508
1656030227.9990921	4.90100	1471.110000000	-9.44	1451.171230254	0.293154000	-2.70	0.292828562	 6.000	 -1.136
1656030229.7015531	4.89900	1471.110000000	-9.44	1451.171230254	0.293123000	-2.69	0.292799041	 6.000	 0.025
1656030230.8967271	4.88400	1470.805000000	-9.44	1450.870364088	0.293093000	-2.70	0.292767630	 6.000	 -1.106
1656030233.1024930	4.87700	1470.650000000	-9.44	1450.717464889	0.293032000	-2.69	0.292708142	 6.000	 -0.630
1656030234.2996509	4.86700	1470.500000000	-9.44	1450.594757260	0.293001000	-2.69	0.292677176	 6.000	 0.633
1656030236.0027659	4.86400	1470.345000000	-9.44	1450.441855398	0.292971000	-2.69	0.292648650	 6.000	 -1.108
1656030237.2049179	4.85400	1470.195000000	-9.44	1450.268631757	0.292940000	-2.69	0.292616243	 6.000	 0.049
1656030238.9053991	4.84900	1470.040000000	-9.44	1450.140983994	0.292940000	-2.69	0.292617684	 6.000	 1.194
1656030240.0988531	4.83800	1469.890000000	-9.44	1449.993014450	0.292879000	-2.69	0.292555311	 6.000	 0.062
1656030241.8023131	4.83400	1469.890000000	-9.44	1449.993014450	0.292849000	-2.69	0.292526784	 6.000	 -0.664
1656030243.0051091	4.82100	1469.585000000	-9.44	1449.666899425	0.292818000	-2.69	0.292494378	 6.000	 0.840
1656030244.7228899	4.82100	1469.585000000	-9.44	1449.666899425	0.292818000	-2.69	0.292494378	 6.000	 0.535
1656030245.9147229	4.80200	1469.125000000	-9.44	1449.238369779	0.292757000	-2.69	0.292433446	 6.000	 -0.903
1656030248.1045239	4.80400	1469.280000000	-9.44	1449.391271640	0.292757000	-2.69	0.292433446	 6.000	 -0.922
1656030249.3023360	4.79300	1468.975000000	-9.44	1449.090400235	0.292696000	-2.69	0.292372513	 6.000	 0.420
1656030251.0011640	4.78300	1468.820000000	-9.44	1448.937498374	0.292635000	-2.69	0.292311581	 6.000	 -0.667
1656030252.2075920	4.77600	1468.515000000	-9.44	1448.636626969	0.292635000	-2.69	0.292311581	 6.000	 -1.041
1656030253.9044299	4.77200	1468.515000000	-9.44	1448.636626969	0.292604000	-2.69	0.292280615	 6.000	 1.217
1656030255.1042371	4.75600	1468.060000000	-9.44	1448.187786020	0.292513000	-2.69	0.292189715	 6.000	 -1.178
1656030256.8053420	4.75900	1468.060000000	-9.44	1448.187786020	0.292543000	-2.69	0.292221120	 6.000	 -0.729
1656030258.0031531	4.74800	1467.905000000	-9.44	1448.034884159	0.292513000	-2.69	0.292191154	 6.000	 1.037
1656030259.7089620	4.73800	1467.750000000	-9.44	1447.881982297	0.292452000	-2.69	0.292128783	 6.000	 -1.372
1656030260.9047761	4.73100	1467.600000000	-9.44	1447.734012754	0.292421000	-2.69	0.292099255	 6.000	 0.502
1656030263.1059141	4.71900	1467.445000000	-9.44	1447.581110892	0.292360000	-2.69	0.292036884	 6.000	 -0.234
1656030264.3043640	4.71300	1467.140000000	-9.44	1447.280239488	0.292360000	-2.69	0.292036884	 6.000	 0.271
1656030266.0028369	4.70500	1466.990000000	-9.44	1447.132269944	0.292330000	-2.69	0.292006918	 6.000	 0.024
1656030267.2076330	4.69800	1466.835000000	-9.44	1446.979368083	0.292299000	-2.69	0.291977389	 6.000	 1.441
1656030268.9074631	4.69500	1466.835000000	-9.44	1446.979368083	0.292269000	-2.69	0.291947422	 6.000	 -1.165
1656030270.1122510	4.68900	1466.685000000	-9.44	1446.831398539	0.292238000	-2.69	0.291916456	 6.000	 1.266
1656030271.8103650	4.67800	1466.380000000	-9.44	1446.530527134	0.292177000	-2.69	0.291855523	 6.000	 -0.365
1656030273.0091741	4.67000	1466.225000000	-9.44	1446.377625273	0.292147000	-2.69	0.291825556	 6.000	 -1.428
1656030274.7086430	4.66100	1465.920000000	-9.44	1446.076753868	0.292116000	-2.68	0.291796023	 6.000	 -1.112
1656030275.9044559	4.65100	1465.920000000	-9.44	1446.076753868	0.292055000	-2.69	0.291732222	 6.000	 0.876
1656030277.6062779	4.64300	1465.615000000	-9.44	1445.775882463	0.292025000	-2.69	0.291703690	 6.000	 0.037
1656030278.8050909	4.62900	1465.310000000	-9.44	1445.475011058	0.291964000	-2.69	0.291641322	 6.000	 -0.876
1656030281.0062089	4.62900	1465.310000000	-9.44	1445.475011058	0.291964000	-2.69	0.291642758	 6.000	 0.128
1656030282.2126501	4.61400	1464.855000000	-9.43	1445.051316634	0.291872000	-2.69	0.291550859	 6.000	 1.340
1656030283.9164641	4.61100	1464.855000000	-9.43	1445.051316634	0.291872000	-2.69	0.291549424	 6.000	 1.437
1656030285.1082971	4.60800	1464.700000000	-9.43	1444.898412112	0.291842000	-2.69	0.291520892	 6.000	 -1.128
1656030286.8104010	4.60000	1464.550000000	-9.43	1444.750439993	0.291811000	-2.69	0.291489926	 6.000	 1.300
1656030288.0142081	4.59000	1464.245000000	-9.43	1444.449563353	0.291750000	-2.69	0.291428993	 6.000	 -0.482
1656030289.7106731	4.57900	1464.090000000	-9.44	1444.271525438	0.291719000	-2.69	0.291398027	 6.000	 -0.282
1656030290.9124670	4.57600	1463.940000000	-9.43	1444.148686712	0.291689000	-2.69	0.291368060	 6.000	 -0.743
1656030293.1106160	4.56400	1463.635000000	-9.43	1443.847810071	0.291628000	-2.69	0.291307127	 6.000	 1.384
1656030294.3114130	4.55700	1463.325000000	-9.43	1443.542001026	0.291597000	-2.69	0.291276161	 6.000	 1.109
1656030296.0101659	4.55300	1463.325000000	-9.43	1443.542001026	0.291567000	-2.69	0.291246194	 6.000	 0.545
1656030297.2136829	4.54000	1463.020000000	-9.43	1443.241124386	0.291506000	-2.68	0.291186691	 6.000	 0.763
1656030298.9141500	4.53600	1462.715000000	-9.43	1442.940247745	0.291475000	-2.69	0.291154296	 6.000	 -1.298
1656030300.1169410	4.52800	1462.565000000	-9.43	1442.792275627	0.291445000	-2.69	0.291124329	 6.000	 1.162
1656030301.8144181	4.52400	1462.410000000	-9.43	1442.639371104	0.291414000	-2.69	0.291093363	 6.000	 0.964
1656030303.0112331	4.51700	1462.410000000	-9.43	1442.639371104	0.291384000	-2.68	0.291064825	 6.000	 0.196
1656030305.2147219	4.50100	1461.800000000	-9.43	1442.037617823	0.291292000	-2.68	0.290972926	 6.000	 0.074
1656030306.4105330	4.49800	1461.800000000	-9.43	1442.037617823	0.291262000	-2.68	0.290942959	 6.000	 -0.333
1656030308.1139879	4.49500	1461.650000000	-9.43	1441.889645704	0.291262000	-2.69	0.290941530	 6.000	 -0.877
1656030309.3144381	4.47900	1461.345000000	-9.43	1441.588769064	0.291170000	-2.68	0.290851060	 6.000	 1.102
1656030311.0149050	4.47300	1461.190000000	-9.43	1441.435864541	0.291140000	-2.69	0.290819664	 6.000	 0.625
1656030312.2180691	4.46900	1461.040000000	-9.43	1441.287892423	0.291109000	-2.68	0.290790126	 6.000	 -0.509
1656030313.9121890	4.46000	1460.735000000	-9.43	1440.987015782	0.291048000	-2.68	0.290729193	 6.000	 0.946
1656030315.1189730	4.45200	1460.580000000	-9.43	1440.834111260	0.291018000	-2.68	0.290699226	 6.000	 0.619
1656030316.8204391	4.44800	1460.430000000	-9.43	1440.711193905	0.290987000	-2.69	0.290666833	 6.000	 -0.922
1656030318.0152559	4.43900	1460.275000000	-9.43	1440.558286724	0.290956000	-2.68	0.290637294	 6.000	 1.248
1656030319.7190640	4.43800	1460.275000000	-9.43	1440.558286724	0.290956000	-2.68	0.290637294	 6.000	 1.206
1656030320.9178820	4.41700	1459.665000000	-9.43	1439.956522977	0.290834000	-2.68	0.290515428	 6.000	 0.337
1656030323.1140251	4.41700	1459.665000000	-9.43	1439.956522977	0.290834000	-2.68	0.290515428	 6.000	 0.543
1656030324.3214519	4.40400	1459.210000000	-9.43	1439.482632578	0.290743000	-2.68	0.290424527	 6.000	 1.223
1656030326.0159359	4.40100	1459.055000000	-9.43	1439.354759231	0.290712000	-2.68	0.290394984	 6.000	 -0.912
1656030327.2180910	4.39000	1458.750000000	-9.43	1439.053877357	0.290682000	-2.68	0.290363594	 6.000	 0.413
1656030328.9162109	4.38600	1458.595000000	-9.43	1438.900970176	0.290651000	-2.68	0.290334051	 6.000	 -0.149
1656030330.1223609	4.37500	1458.445000000	-9.43	1438.752995484	0.290590000	-2.69	0.290270269	 6.000	 0.883
1656030331.8248160	4.37000	1458.140000000	-9.43	1438.452113611	0.290560000	-2.68	0.290241728	 6.000	 -1.018
1656030333.0232689	4.36000	1457.835000000	-9.43	1438.151231738	0.290499000	-2.68	0.290180795	 6.000	 0.288
1656030334.7260759	4.36100	1457.835000000	-9.43	1438.151231738	0.290499000	-2.68	0.290182216	 6.000	 0.184
1656030335.9308751	4.34400	1457.530000000	-9.43	1437.850349864	0.290407000	-2.68	0.290088895	 6.000	 1.161
1656030338.1220369	4.33800	1457.225000000	-9.43	1437.549467991	0.290377000	-2.68	0.290058928	 6.000	 -0.256
1656030339.3184960	4.32800	1456.920000000	-9.43	1437.248586118	0.290316000	-2.68	0.289997995	 6.000	 1.345
1656030341.0219550	4.32800	1456.920000000	-9.43	1437.248586118	0.290316000	-2.68	0.289997995	 6.000	 -0.695
1656030342.2327299	4.31000	1456.460000000	-9.43	1436.794797063	0.290194000	-2.68	0.289876129	 6.000	 1.038
1656030343.9242790	4.31200	1456.460000000	-9.43	1436.794797063	0.290194000	-2.68	0.289876129	 6.000	 1.197
1656030345.1220310	4.30000	1456.155000000	-9.43	1436.493915190	0.290133000	-2.68	0.289815195	 6.000	 -0.783
1656030346.8244939	4.29100	1455.850000000	-9.42	1436.217993757	0.290102000	-2.68	0.289785649	 6.000	 1.108
1656030348.0272911	4.28300	1455.700000000	-9.42	1436.070016494	0.290041000	-2.68	0.289724716	 6.000	 1.202
1656030350.2294230	4.26900	1455.240000000	-9.42	1435.616219552	0.289980000	-2.68	0.289663782	 6.000	 -1.083
1656030351.4232390	4.27000	1455.240000000	-9.42	1435.616219552	0.289980000	-2.68	0.289663782	 6.000	 0.672
1656030353.1217170	4.25700	1454.935000000	-9.43	1435.290387697	0.289919000	-2.68	0.289602849	 6.000	 -0.850
1656030354.3248460	4.24900	1454.780000000	-9.42	1435.162422611	0.289858000	-2.68	0.289541915	 6.000	 -1.106
1656030356.0233400	4.24400	1454.475000000	-9.42	1434.861535509	0.289797000	-2.68	0.289480982	 6.000	 1.248
1656030357.2311270	4.23500	1454.170000000	-9.42	1434.560648406	0.289766000	-2.68	0.289450016	 6.000	 0.980
1656030358.9383910	4.22800	1454.020000000	-9.42	1434.412671143	0.289736000	-2.68	0.289418630	 6.000	 -0.025
1656030360.1310401	4.23000	1453.865000000	-9.42	1434.259761304	0.289705000	-2.68	0.289389082	 6.000	 0.249
1656030361.8235290	4.20900	1453.410000000	-9.42	1433.810896938	0.289614000	-2.67	0.289299596	 6.000	 -1.055
1656030363.0236831	4.20100	1453.105000000	-9.42	1433.510009835	0.289553000	-2.68	0.289237248	 6.000	 -0.876
1656030364.7397621	4.20500	1453.255000000	-9.42	1433.657987099	0.289553000	-2.68	0.289237248	 6.000	 -0.833
1656030365.9299450	4.18900	1452.645000000	-9.42	1433.056212894	0.289461000	-2.68	0.289145348	 6.000	 0.914
1656030368.1307271	4.18400	1452.495000000	-9.42	1432.908235630	0.289431000	-2.68	0.289115381	 6.000	 -0.298
1656030369.3295319	4.17400	1452.190000000	-9.42	1432.607348528	0.289370000	-2.68	0.289054448	 6.000	 -0.789
1656030371.0310011	4.16900	1452.035000000	-9.42	1432.454438689	0.289339000	-2.66	0.289026304	 6.000	 -0.914
1656030372.2341559	4.15800	1451.580000000	-9.42	1432.005574323	0.289248000	-2.67	0.288933993	 6.000	 -0.596
1656030373.9322729	4.14500	1451.275000000	-9.42	1431.704687221	0.289156000	-2.67	0.288842093	 6.000	 -1.165
1656030375.1350629	4.14900	1451.275000000	-9.42	1431.704687221	0.289186000	-2.67	0.288872061	 6.000	 -0.385
1656030376.8325441	4.13600	1450.815000000	-9.41	1431.275748700	0.289095000	-2.68	0.288779747	 6.000	 -0.671
1656030378.0333419	4.13900	1450.970000000	-9.41	1431.428661195	0.289095000	-2.67	0.288781159	 6.000	 -1.244
1656030379.7391560	4.12500	1450.510000000	-9.41	1430.974856371	0.289003000	-2.68	0.288687848	 6.000	 -1.147
1656030380.9326169	4.11600	1450.050000000	-9.41	1430.521051548	0.288973000	-2.67	0.288659292	 6.000	 0.623
1656030383.1361051	4.10800	1449.745000000	-9.41	1430.220159220	0.288881000	-2.67	0.288567392	 6.000	 1.088
1656030384.3338971	4.10200	1449.440000000	-9.41	1429.919266892	0.288851000	-2.67	0.288537424	 6.000	 -0.294
1656030386.0353770	4.09000	1449.135000000	-9.41	1429.618374563	0.288729000	-2.67	0.288415557	 6.000	 0.336
1656030387.2378149	4.08700	1448.985000000	-9.41	1429.470394730	0.288729000	-2.68	0.288414147	 6.000	 -0.750
1656030388.9362891	4.08000	1448.830000000	-9.41	1429.317482235	0.288698000	-2.68	0.288383180	 6.000	 -0.713
1656030390.1344609	4.06900	1448.220000000	-9.41	1428.715697578	0.288607000	-2.68	0.288292280	 6.000	 1.314
1656030391.8355651	4.06700	1448.220000000	-9.41	1428.715697578	0.288576000	-2.67	0.288262723	 6.000	 -0.851
1656030393.0373650	4.05600	1447.915000000	-9.41	1428.414805250	0.288515000	-2.67	0.288201789	 6.000	 -1.164
1656030394.7431769	4.04800	1447.610000000	-9.41	1428.113912922	0.288454000	-2.67	0.288140855	 6.000	 0.742
1656030395.9396310	4.03700	1447.155000000	-9.41	1427.689820813	0.288363000	-2.67	0.288049954	 6.000	 1.355
1656030398.1437600	4.03000	1446.850000000	-9.41	1427.364148431	0.288301000	-2.66	0.287989426	 6.000	 1.067
1656030399.3349259	4.01900	1446.390000000	-9.41	1426.910343608	0.288240000	-2.67	0.287927087	 6.000	 -1.027
1656030401.0390439	4.01700	1446.390000000	-9.41	1426.910343608	0.288179000	-2.67	0.287866154	 6.000	 0.938
1656030402.2398419	4.00800	1446.085000000	-9.41	1426.609451280	0.288118000	-2.67	0.287805220	 6.000	 1.459
1656030403.9366679	4.00200	1445.780000000	-9.41	1426.333315461	0.288088000	-2.66	0.287776656	 6.000	 -1.089
1656030405.1381259	3.99100	1445.320000000	-9.41	1425.879502761	0.287996000	-2.67	0.287683352	 6.000	 -0.117
1656030406.8395901	3.98800	1445.170000000	-9.41	1425.731520359	0.287935000	-2.66	0.287623822	 6.000	 -0.835
1656030408.0427451	3.97500	1444.560000000	-9.41	1425.129725257	0.287874000	-2.66	0.287562888	 6.000	 1.522
1656030410.2508581	3.97400	1444.560000000	-9.41	1425.129725257	0.287844000	-2.66	0.287532920	 6.000	 -1.078
1656030411.4473109	3.95900	1443.950000000	-9.41	1424.527930155	0.287722000	-2.67	0.287409650	 6.000	 -1.017
1656030413.1457860	3.95400	1443.795000000	-9.41	1424.375015006	0.287661000	-2.66	0.287350118	 6.000	 -1.009
1656030414.3419380	3.94700	1443.490000000	-9.41	1424.074117455	0.287630000	-2.66	0.287319151	 6.000	 0.731
1656030416.0444250	3.93900	1443.185000000	-9.41	1423.773219904	0.287569000	-2.66	0.287258217	 6.000	 -0.473
1656030417.2478571	3.93400	1443.035000000	-9.41	1423.625237502	0.287508000	-2.66	0.287197283	 6.000	 -1.302
1656030418.9476891	3.93200	1442.730000000	-9.41	1423.324339951	0.287477000	-2.66	0.287166317	 6.000	 -0.608
1656030420.1451361	3.91800	1442.120000000	-9.41	1422.722544849	0.287386000	-2.66	0.287076812	 6.000	 1.044
1656030421.8565741	3.90700	1441.815000000	-9.41	1422.421647298	0.287264000	-2.66	0.286953547	 6.000	 -1.138
1656030423.0457640	3.90500	1441.505000000	-9.41	1422.115817001	0.287233000	-2.66	0.286922580	 6.000	 1.407
1656030425.2568729	3.89200	1441.050000000	-9.40	1421.691596973	0.287142000	-2.66	0.286831679	 6.000	 0.069
1656030426.4536719	3.89000	1440.895000000	-9.41	1421.514021899	0.287111000	-2.66	0.286802108	 6.000	 0.510
1656030428.1528020	3.88300	1440.590000000	-9.40	1421.237776402	0.287050000	-2.66	0.286739778	 6.000	 -0.858
1656030429.3536041	3.86900	1439.980000000	-9.40	1420.635970861	0.286959000	-2.66	0.286650272	 6.000	 -0.034
1656030431.0500820	3.86100	1439.675000000	-9.40	1420.335068091	0.286867000	-2.66	0.286556976	 6.000	 0.185
1656030432.2548721	3.86100	1439.525000000	-9.40	1420.187083122	0.286867000	-2.66	0.286556976	 6.000	 1.207
1656030433.9623251	3.85100	1439.220000000	-9.40	1419.886180352	0.286806000	-2.66	0.286497436	 6.000	 -0.600
1656030435.1531489	3.83900	1438.610000000	-9.40	1419.284374811	0.286654000	-2.66	0.286345600	 6.000	 -0.077
1656030436.8598499	3.84000	1438.610000000	-9.40	1419.284374811	0.286654000	-2.66	0.286345600	 6.000	 -0.670
1656030438.0617530	3.82900	1438.150000000	-9.40	1418.830554239	0.286562000	-2.66	0.286253699	 6.000	 -0.558
1656030439.7652130	3.81900	1437.845000000	-9.40	1418.529651469	0.286501000	-2.66	0.286192764	 6.000	 -1.024
1656030440.9620271	3.80600	1437.235000000	-9.40	1417.927845929	0.286348000	-2.66	0.286039929	 6.000	 -0.212
1656030443.1661589	3.80100	1436.930000000	-9.40	1417.651517035	0.286318000	-2.66	0.286008569	 6.000	 -1.146
1656030444.3606181	3.79000	1436.320000000	-9.40	1417.025137618	0.286196000	-2.66	0.285888092	 6.000	 1.366
1656030446.0630820	3.78800	1436.165000000	-9.40	1416.872219817	0.286165000	-2.66	0.285857126	 6.000	 -0.115
1656030447.2649741	3.77700	1435.710000000	-9.40	1416.423332077	0.286074000	-2.66	0.285766224	 6.000	 -0.009
1656030448.9617109	3.77800	1435.555000000	-9.40	1416.270414276	0.286043000	-2.66	0.285735257	 6.000	 -1.006
1656030450.1661501	3.76200	1434.945000000	-9.40	1415.693148665	0.285921000	-2.66	0.285613388	 6.000	 -0.838
1656030451.8706510	3.76100	1434.795000000	-9.40	1415.545161131	0.285891000	-2.66	0.285583421	 6.000	 -0.929
1656030453.0696211	3.75100	1434.185000000	-9.40	1414.918818226	0.285769000	-2.65	0.285462938	 6.000	 0.827
1656030455.2735400	3.74500	1433.880000000	-9.40	1414.642437172	0.285707000	-2.65	0.285401004	 6.000	 1.146
1656030456.4733441	3.73500	1433.420000000	-9.40	1414.188608734	0.285616000	-2.65	0.285310102	 6.000	 0.153
1656030458.1671910	3.72700	1433.115000000	-9.40	1413.887700748	0.285524000	-2.66	0.285216815	 6.000	 1.120
1656030459.3689721	3.71600	1432.505000000	-9.40	1413.285884775	0.285433000	-2.65	0.285127298	 6.000	 -0.460
1656030461.0674729	3.71800	1432.505000000	-9.40	1413.285884775	0.285402000	-2.65	0.285097712	 6.000	 0.542
1656030462.2822280	3.70900	1431.895000000	-9.40	1412.684068803	0.285311000	-2.65	0.285006809	 6.000	 -0.853
1656030463.9723630	3.70000	1431.740000000	-9.40	1412.531148350	0.285250000	-2.66	0.284943110	 6.000	 0.708
1656030465.1735160	3.69300	1431.130000000	-9.40	1411.929332378	0.285158000	-2.65	0.284853973	 6.000	 0.101
1656030466.8766251	3.68200	1430.675000000	-9.40	1411.480436857	0.285067000	-2.65	0.284761690	 6.000	 1.056
1656030468.0817671	3.66700	1429.910000000	-9.40	1410.725700433	0.284914000	-2.65	0.284610233	 6.000	 1.096
1656030470.2819140	3.66200	1429.605000000	-9.39	1410.449225586	0.284822000	-2.65	0.284516952	 6.000	 0.697
1656030471.4873431	3.66200	1429.455000000	-9.39	1410.301235488	0.284822000	-2.65	0.284518331	 6.000	 -1.035
1656030473.1821780	3.65400	1428.995000000	-9.39	1409.847399188	0.284731000	-2.65	0.284427428	 6.000	 1.180
1656030474.3846180	3.63800	1428.230000000	-9.39	1409.092649689	0.284548000	-2.65	0.284244623	 6.000	 1.015
1656030476.0900819	3.63700	1428.080000000	-9.39	1408.944659591	0.284548000	-2.65	0.284243246	 6.000	 1.180
1656030477.2912300	3.63000	1427.775000000	-9.39	1408.643746392	0.284487000	-2.65	0.284183688	 6.000	 -0.428
1656030478.9833660	3.62100	1427.315000000	-9.39	1408.189910092	0.284395000	-2.65	0.284090410	 6.000	 0.340
1656030480.1811750	3.60800	1426.400000000	-9.39	1407.287170496	0.284243000	-2.65	0.283939948	 6.000	 1.148
1656030481.8836370	3.61000	1426.555000000	-9.39	1407.440093597	0.284273000	-2.65	0.283969916	 6.000	 -0.818
1656030483.0845370	3.59600	1425.640000000	-9.39	1406.537354000	0.284090000	-2.64	0.283788483	 6.000	 1.466
1656030484.7852621	3.59300	1425.485000000	-9.39	1406.384430899	0.284060000	-2.65	0.283757143	 6.000	 0.510
1656030485.9827170	3.58200	1424.725000000	-9.39	1405.634614403	0.283876000	-2.65	0.283573339	 6.000	 0.748
1656030488.1888371	3.57600	1424.570000000	-9.39	1405.481691302	0.283815000	-2.64	0.283513775	 6.000	 1.014
1656030489.3846531	3.57500	1424.415000000	-9.38	1405.353097228	0.283785000	-2.65	0.283482436	 6.000	 -0.570
1656030491.0841219	3.56200	1423.655000000	-9.39	1404.578951705	0.283663000	-2.65	0.283360566	 6.000	 -0.152
1656030492.2872820	3.55800	1423.195000000	-9.38	1404.149423594	0.283571000	-2.64	0.283270034	 6.000	 -0.834
1656030493.9863920	3.54700	1422.435000000	-9.38	1403.399594118	0.283449000	-2.64	0.283148163	 6.000	 1.097
1656030495.1951680	3.54000	1421.975000000	-9.38	1402.945749961	0.283358000	-2.64	0.283057260	 6.000	 1.113
1656030496.8919930	3.53100	1421.520000000	-9.38	1402.496838892	0.283236000	-2.65	0.282934022	 6.000	 0.699
1656030498.0904579	3.52600	1421.060000000	-9.38	1402.042994736	0.283144000	-2.64	0.282843487	 6.000	 -0.994
1656030500.2929471	3.51400	1420.605000000	-9.38	1401.594083667	0.283052000	-2.64	0.282751585	 6.000	 1.246
1656030501.4884050	3.50400	1419.840000000	-9.38	1400.839321102	0.282900000	-2.65	0.282598380	 6.000	 -1.224
1656030503.1868770	3.49900	1419.685000000	-9.38	1400.686395354	0.282869000	-2.64	0.282568779	 6.000	 -1.204
1656030504.3870380	3.49500	1418.925000000	-9.38	1399.960785783	0.282717000	-2.63	0.282418302	 6.000	 1.462
1656030506.0901430	3.49300	1418.925000000	-9.38	1399.960785783	0.282717000	-2.63	0.282418302	 6.000	 0.802
1656030507.2932961	3.48400	1418.315000000	-9.38	1399.358938554	0.282564000	-2.63	0.282265464	 6.000	 1.251
1656030508.9927649	3.47900	1418.010000000	-9.38	1399.033810652	0.282503000	-2.64	0.282203167	 6.000	 1.366
1656030510.1882241	3.45900	1416.635000000	-9.38	1397.701392087	0.282290000	-2.63	0.281993111	 6.000	 -0.554
1656030511.8970220	3.45900	1416.635000000	-9.38	1397.701392087	0.282290000	-2.63	0.281991754	 6.000	 0.339
1656030513.0934830	3.44500	1415.720000000	-9.38	1396.798621244	0.282106000	-2.63	0.281807948	 6.000	 -0.534
1656030515.2996049	3.44300	1415.565000000	-9.38	1396.645692850	0.282045000	-2.63	0.281747012	 6.000	 -0.861
1656030516.4967599	3.42800	1414.500000000	-9.38	1395.594926786	0.281862000	-2.63	0.281564206	 6.000	 -0.912
1656030518.2028689	3.42600	1414.345000000	-9.37	1395.466124818	0.281832000	-2.63	0.281534237	 6.000	 1.103
1656030519.3926971	3.41000	1413.280000000	-9.38	1394.391232328	0.281588000	-2.63	0.281291849	 6.000	 -0.661
1656030521.0951619	3.41200	1413.430000000	-9.37	1394.563338366	0.281618000	-2.63	0.281321817	 6.000	 -1.102
1656030522.2953269	3.40300	1412.670000000	-9.38	1393.789385099	0.281466000	-2.63	0.281169977	 6.000	 1.114
1656030523.9957790	3.39500	1412.060000000	-9.37	1393.211625318	0.281374000	-2.63	0.281078074	 6.000	 -0.216
1656030525.1916070	3.38100	1410.990000000	-9.37	1392.155907828	0.281160000	-2.63	0.280864299	 6.000	 -0.956
1656030526.8930681	3.38700	1411.140000000	-9.37	1392.303905607	0.281221000	-2.63	0.280925235	 6.000	 -0.866
1656030528.0938749	3.36800	1410.075000000	-9.37	1391.253121376	0.280947000	-2.63	0.280651523	 6.000	 -0.061
1656030529.7953370	3.36700	1409.920000000	-9.37	1391.100190338	0.280916000	-2.63	0.280620556	 6.000	 -1.228
1656030530.9971340	3.35500	1408.855000000	-9.37	1390.049406107	0.280733000	-2.63	0.280437748	 6.000	 1.487
1656030533.1962759	3.34900	1408.245000000	-9.37	1389.471555605	0.280611000	-2.62	0.280317222	 6.000	 0.550
1656030534.3930759	3.34400	1407.785000000	-9.37	1389.017687908	0.280489000	-2.63	0.280194005	 6.000	 -0.265
1656030536.0931981	3.33600	1407.330000000	-9.37	1388.568753555	0.280397000	-2.63	0.280102101	 6.000	 -1.011
1656030537.3043289	3.33000	1406.565000000	-9.37	1387.813951841	0.280275000	-2.62	0.279981574	 6.000	 -0.769
1656030538.9954720	3.32700	1406.410000000	-9.37	1387.661018160	0.280214000	-2.62	0.279920638	 6.000	 1.119
1656030540.1982601	3.31500	1405.345000000	-9.37	1386.610215774	0.280031000	-2.63	0.279736486	 6.000	 -0.198
1656030541.8947411	3.30500	1404.580000000	-9.37	1385.855414059	0.279879000	-2.62	0.279585989	 6.000	 0.917
1656030543.0975380	3.29800	1403.970000000	-9.36	1385.277465090	0.279757000	-2.62	0.279465455	 6.000	 0.953
1656030544.8013661	3.28600	1403.055000000	-9.37	1384.350743975	0.279604000	-2.62	0.279311276	 6.000	 -0.437
1656030545.9961841	3.28300	1402.595000000	-9.37	1383.896876278	0.279482000	-2.62	0.279190741	 6.000	 1.183
1656030548.1959541	3.28300	1402.595000000	-9.36	1383.920771916	0.279451000	-2.62	0.279158437	 6.000	 0.171
1656030549.4007440	3.26400	1401.070000000	-9.36	1382.416075851	0.279177000	-2.62	0.278884723	 6.000	 1.365
1656030551.0985751	3.26300	1401.070000000	-9.36	1382.416075851	0.279146000	-2.62	0.278853756	 6.000	 0.879
1656030552.3003769	3.25700	1400.155000000	-9.36	1381.513258212	0.279024000	-2.62	0.278731884	 6.000	 0.075
1656030553.9998500	3.24200	1398.935000000	-9.36	1380.309501360	0.278719000	-2.62	0.278428537	 6.000	 1.320
1656030555.1982939	3.24500	1399.240000000	-9.36	1380.610440573	0.278780000	-2.62	0.278489473	 6.000	 0.254
1656030556.8981221	3.23700	1398.480000000	-9.36	1379.860559256	0.278627000	-2.62	0.278336633	 6.000	 0.992
1656030558.1009281	3.22100	1397.105000000	-9.36	1378.503866083	0.278383000	-2.62	0.278092887	 6.000	 1.285
1656030560.3046911	3.21500	1396.645000000	-9.36	1378.049990548	0.278261000	-2.61	0.277972342	 6.000	 -0.116
1656030561.5015011	3.20900	1395.730000000	-9.35	1377.170936488	0.278078000	-2.61	0.277789532	 6.000	 0.766
1656030563.2019711	3.18900	1394.510000000	-9.35	1375.967158865	0.277834000	-2.61	0.277545785	 6.000	 -0.523
1656030564.4037721	3.19700	1394.510000000	-9.35	1375.967158865	0.277834000	-2.61	0.277545785	 6.000	 -1.042
1656030566.1025960	3.17000	1392.525000000	-9.35	1374.032247412	0.277437000	-2.61	0.277149197	 6.000	 0.982
1656030567.3060341	3.17700	1392.985000000	-9.35	1374.462436835	0.277529000	-2.61	0.277241102	 6.000	 -0.721
1656030569.0025179	3.17400	1392.220000000	-9.35	1373.731297817	0.277437000	-2.61	0.277149197	 6.000	 0.328
1656030570.2016780	3.15700	1391.000000000	-9.35	1372.527499435	0.277163000	-2.60	0.276876802	 6.000	 -0.775
1656030571.9067791	3.15600	1390.390000000	-9.35	1371.925600244	0.277040000	-2.60	0.276753929	 6.000	 1.199
1656030573.1065810	3.15400	1390.085000000	-9.35	1371.624650648	0.276949000	-2.60	0.276663023	 6.000	 1.334
1656030575.3110659	3.13900	1388.560000000	-9.35	1370.119902671	0.276674000	-2.60	0.276388307	 6.000	 1.407
1656030576.5105121	3.13400	1387.950000000	-9.35	1369.518003480	0.276522000	-2.60	0.276236463	 6.000	 -0.414
1656030578.2089860	3.13200	1387.490000000	-9.35	1369.064112287	0.276461000	-2.60	0.276175526	 6.000	 -1.110
1656030579.4081459	3.11600	1386.270000000	-9.34	1367.883886418	0.276217000	-2.60	0.275931778	 6.000	 0.535
1656030581.1092589	3.10800	1385.355000000	-9.34	1366.981022073	0.276003000	-2.60	0.275719311	 6.000	 1.181
1656030582.3143921	3.10000	1384.440000000	-9.34	1366.078157727	0.275850000	-2.60	0.275566468	 6.000	 -1.035
1656030584.0075359	3.09100	1383.675000000	-9.34	1365.323303930	0.275698000	-2.60	0.275414625	 6.000	 -0.571
1656030585.2053461	3.08000	1382.455000000	-9.34	1364.119484803	0.275454000	-2.60	0.275170875	 6.000	 -0.918
1656030586.9091599	3.07800	1382.150000000	-9.34	1363.818530021	0.275362000	-2.60	0.275078970	 6.000	 0.539
1656030588.1089621	3.07300	1381.235000000	-9.34	1362.939137627	0.275240000	-2.60	0.274957095	 6.000	 0.277
1656030589.8124239	3.06300	1380.470000000	-9.34	1362.184270830	0.275057000	-2.59	0.274775588	 6.000	 0.838
1656030591.0108740	3.05500	1379.250000000	-9.34	1360.980430971	0.274813000	-2.60	0.274530534	 6.000	 -0.002
1656030593.2143619	3.04500	1378.185000000	-9.34	1359.929537979	0.274599000	-2.59	0.274318056	 6.000	 0.094
1656030594.4168010	3.03600	1377.115000000	-9.33	1358.897098253	0.274385000	-2.59	0.274104275	 6.000	 1.002
1656030596.1186211	3.03900	1376.810000000	-9.34	1358.572751252	0.274355000	-2.59	0.274074306	 6.000	 0.026
1656030597.3150749	3.02800	1375.740000000	-9.33	1357.540288176	0.274111000	-2.59	0.273830555	 6.000	 -1.108
1656030599.0135520	3.01300	1374.215000000	-9.33	1356.035462453	0.273836000	-2.59	0.273555837	 6.000	 1.233
1656030600.2126770	3.01500	1374.065000000	-9.33	1355.887446808	0.273775000	-2.58	0.273497486	 6.000	 0.189
1656030601.9108300	3.00600	1372.845000000	-9.33	1354.683586230	0.273531000	-2.59	0.273252443	 6.000	 1.269
1656030603.1156220	2.99800	1372.230000000	-9.32	1354.100011313	0.273409000	-2.59	0.273130567	 6.000	 1.260
1656030604.8180859	2.98400	1370.705000000	-9.32	1352.595159709	0.273134000	-2.59	0.272855847	 6.000	 0.853
1656030606.0198820	2.97700	1369.180000000	-9.32	1351.090308104	0.272829000	-2.59	0.272551158	 6.000	 -1.082
1656030608.2183831	2.97700	1369.030000000	-9.32	1350.942289914	0.272768000	-2.58	0.272491507	 6.000	 -0.423
1656030609.4161971	2.96300	1367.350000000	-9.32	1349.284486179	0.272402000	-2.58	0.272125878	 6.000	 1.055
1656030611.1176641	2.95000	1365.825000000	-9.32	1347.779634575	0.272127000	-2.57	0.271852438	 6.000	 1.057
1656030612.3210909	2.94800	1365.365000000	-9.32	1347.348870064	0.272005000	-2.57	0.271730561	 6.000	 1.250
1656030614.0195689	2.94600	1364.450000000	-9.32	1346.445943582	0.271852000	-2.57	0.271577715	 6.000	 -1.051
1656030615.2213659	2.93700	1363.535000000	-9.32	1345.543017100	0.271669000	-2.58	0.271393621	 6.000	 -0.655
1656030616.9191930	2.92700	1362.160000000	-9.31	1344.209249204	0.271364000	-2.57	0.271090208	 6.000	 -0.670
1656030618.1186459	2.91200	1360.025000000	-9.31	1342.102384558	0.270967000	-2.57	0.270693608	 6.000	 0.309
1656030620.3251209	2.91200	1360.180000000	-9.32	1342.232286666	0.270998000	-2.57	0.270724577	 6.000	 -0.994
1656030621.5445170	2.90000	1358.345000000	-9.31	1340.444523852	0.270632000	-2.57	0.270358946	 6.000	 -0.960
1656030623.2310250	2.89600	1356.820000000	-9.31	1338.939620533	0.270357000	-2.57	0.270085494	 6.000	 0.390
1656030624.4218521	2.89700	1356.975000000	-9.31	1339.092577920	0.270388000	-2.57	0.270116463	 6.000	 -0.658
1656030626.1213231	2.88300	1355.755000000	-9.31	1337.911620867	0.270144000	-2.57	0.269872708	 6.000	 0.521
1656030627.3254910	2.87600	1353.920000000	-9.31	1336.100771691	0.269747000	-2.57	0.269476106	 6.000	 -0.420
1656030629.0235910	2.87100	1352.855000000	-9.31	1335.049788382	0.269564000	-2.56	0.269294554	 6.000	 1.201
1656030630.2257431	2.86100	1351.785000000	-9.31	1333.993870879	0.269350000	-2.56	0.269080767	 6.000	 -0.345
1656030631.9228621	2.85100	1349.650000000	-9.31	1331.886970067	0.268923000	-2.56	0.268654194	 6.000	 0.887
1656030633.1256599	2.85000	1349.345000000	-9.30	1331.608826655	0.268862000	-2.56	0.268593255	 6.000	 1.037
1656030634.8301179	2.83700	1347.820000000	-9.30	1330.103871687	0.268557000	-2.56	0.268289816	 6.000	 -0.496
1656030636.0332630	2.83400	1347.210000000	-9.30	1329.501889700	0.268435000	-2.56	0.268167937	 6.000	 -0.651
1656030637.7254040	2.81700	1344.765000000	-9.29	1327.111777807	0.267916000	-2.55	0.267650703	 6.000	 1.325
1656030638.9285560	2.82700	1345.530000000	-9.29	1327.866735372	0.268099000	-2.56	0.267832271	 6.000	 -0.482
1656030641.1283350	2.79800	1341.255000000	-9.29	1323.647854861	0.267244000	-2.56	0.266978122	 6.000	 0.495
1656030642.3304951	2.79700	1340.950000000	-9.29	1323.346858708	0.267183000	-2.55	0.266918429	 6.000	 0.660
1656030644.0325949	2.79400	1340.035000000	-9.29	1322.443870247	0.267031000	-2.55	0.266766580	 6.000	 1.019
1656030645.2314041	2.78200	1337.750000000	-9.29	1320.211483456	0.266573000	-2.55	0.266309033	 6.000	 -0.667
1656030646.9322269	2.77500	1336.525000000	-9.29	1319.002543768	0.266298000	-2.54	0.266035545	 6.000	 0.257
1656030648.1336739	2.77400	1336.375000000	-9.29	1318.854510337	0.266268000	-2.54	0.266005574	 6.000	 0.988
1656030649.8401260	2.76000	1334.240000000	-9.28	1316.770044562	0.265841000	-2.55	0.265577758	 6.000	 -0.936
1656030651.0332980	2.75800	1332.865000000	-9.29	1315.390528048	0.265566000	-2.54	0.265304266	 6.000	 0.526
1656030653.2394199	2.74800	1331.185000000	-9.28	1313.755045397	0.265230000	-2.54	0.264968597	 6.000	 0.916
1656030654.4332299	2.73600	1328.440000000	-9.28	1311.045987227	0.264681000	-2.54	0.264421367	 6.000	 -1.114
1656030656.1333549	2.72900	1327.220000000	-9.28	1309.864371794	0.264467000	-2.54	0.264207577	 6.000	 0.234
1656030657.3464730	2.72100	1325.695000000	-9.28	1308.359313728	0.264132000	-2.53	0.263874129	 6.000	 -0.926
1656030659.0356190	2.71600	1324.780000000	-9.28	1307.456278888	0.263918000	-2.53	0.263660338	 6.000	 0.830
1656030660.2364211	2.70700	1322.945000000	-9.28	1305.645274592	0.263582000	-2.53	0.263324666	 6.000	 -0.530
1656030661.9388859	2.70300	1321.575000000	-9.28	1304.293189640	0.263277000	-2.53	0.263021180	 6.000	 -0.380
1656030663.1390460	2.68800	1317.760000000	-9.27	1300.550313590	0.262636000	-2.53	0.262380803	 6.000	 -0.954
1656030665.3491530	2.69200	1318.520000000	-9.27	1301.300388139	0.262667000	-2.53	0.262411773	 6.000	 -0.034
1656030666.5835099	2.67700	1315.165000000	-9.26	1298.011382181	0.262056000	-2.53	0.261801367	 6.000	 0.286
1656030667.7753351	2.67300	1314.860000000	-9.26	1297.710360277	0.261965000	-2.53	0.261710455	 6.000	 0.990
1656030668.9651639	2.65600	1310.740000000	-9.26	1293.666186782	0.261202000	-2.52	0.260949401	 6.000	 0.316
1656030671.1533389	2.65100	1309.670000000	-9.26	1292.610124695	0.260927000	-2.52	0.260674667	 6.000	 -1.079
1656030672.3581240	2.65100	1308.450000000	-9.26	1291.406016521	0.260683000	-2.51	0.260432101	 6.000	 -0.546
1656030674.0486190	2.63700	1306.620000000	-9.25	1289.621860278	0.260347000	-2.51	0.260096425	 6.000	 -0.286
1656030675.2477760	2.63300	1304.485000000	-9.25	1287.514635016	0.259951000	-2.51	0.259700806	 6.000	 1.348
1656030676.9498920	2.62300	1302.040000000	-9.25	1285.101442621	0.259432000	-2.51	0.259183496	 6.000	 0.708
1656030678.1500511	2.61500	1300.670000000	-9.25	1283.749265286	0.259188000	-2.51	0.258939729	 6.000	 0.218
1656030679.8535120	2.61300	1299.145000000	-9.25	1282.265970448	0.258852000	-2.51	0.258604051	 6.000	 -1.265
1656030681.0443399	2.59800	1296.550000000	-9.25	1279.704685762	0.258364000	-2.51	0.258116519	 6.000	 -1.000
1656030683.2464650	2.59400	1295.330000000	-9.24	1278.522324339	0.258089000	-2.51	0.257841782	 6.000	 0.808
1656030684.4479079	2.58800	1293.040000000	-9.24	1276.262038448	0.257601000	-2.50	0.257356605	 6.000	 -0.992
1656030686.1487329	2.58100	1291.210000000	-9.24	1274.455783784	0.257265000	-2.50	0.257020924	 6.000	 0.604
1656030687.3495331	2.57000	1287.395000000	-9.23	1270.711926102	0.256533000	-2.49	0.256290787	 6.000	 -1.135
1656030689.0496490	2.56900	1286.785000000	-9.23	1270.109830961	0.256350000	-2.49	0.256107959	 6.000	 -0.879
1656030690.2448270	2.55800	1283.425000000	-9.23	1266.814932278	0.255709000	-2.49	0.255467565	 6.000	 1.498
1656030691.9482851	2.54900	1280.985000000	-9.23	1264.406510723	0.255220000	-2.48	0.254980186	 6.000	 0.312
1656030693.1460929	2.54500	1279.915000000	-9.23	1263.350358647	0.255007000	-2.48	0.254767386	 6.000	 -0.488
1656030694.8535380	2.53800	1277.020000000	-9.22	1260.514264080	0.254457000	-2.48	0.254217903	 6.000	 0.407
1656030696.0489981	2.52900	1273.660000000	-9.22	1257.219060934	0.253786000	-2.48	0.253548684	 6.000	 -0.696
1656030697.7494669	2.52800	1273.510000000	-9.22	1257.049631523	0.253725000	-2.48	0.253487741	 6.000	 0.833
1656030698.9502659	2.51300	1268.780000000	-9.22	1252.402054027	0.252779000	-2.47	0.252543769	 6.000	 -1.183
1656030701.1497681	2.50600	1266.945000000	-9.21	1250.611982798	0.252413000	-2.47	0.252178109	 6.000	 -0.000
1656030702.3525560	2.49900	1263.740000000	-9.21	1247.448300551	0.251772000	-2.47	0.251537706	 6.000	 0.736
1656030704.0550210	2.49000	1261.455000000	-9.20	1245.213894099	0.251314000	-2.46	0.251082397	 6.000	 0.860
1656030705.2524769	2.48500	1258.250000000	-9.20	1242.050158151	0.250704000	-2.46	0.250472959	 6.000	 0.196
1656030706.9493129	2.48100	1256.115000000	-9.20	1239.963679107	0.250307000	-2.46	0.250076325	 6.000	 0.927
1656030708.1498361	2.46800	1252.605000000	-9.19	1236.519771943	0.249543000	-2.45	0.249314149	 6.000	 1.355
1656030709.8545740	2.45900	1250.315000000	-9.19	1234.259178797	0.249116000	-2.45	0.248888656	 6.000	 0.350
1656030711.0513861	2.45000	1245.275000000	-9.19	1229.304724133	0.248139000	-2.44	0.247913656	 6.000	 -0.214
1656030713.2515240	2.44700	1245.120000000	-9.19	1229.151711962	0.248078000	-2.45	0.247851603	 6.000	 -0.156
1656030714.4499681	2.43500	1239.020000000	-9.18	1223.150649180	0.246888000	-2.44	0.246663792	 6.000	 1.418
1656030716.1484430	2.43100	1238.255000000	-9.18	1222.395447289	0.246675000	-2.44	0.246450986	 6.000	 0.384
1656030717.3545830	2.42700	1235.815000000	-9.17	1220.007338394	0.246247000	-2.44	0.246024472	 6.000	 1.238
1656030719.0540540	2.41800	1232.760000000	-9.17	1216.991415769	0.245637000	-2.43	0.245416115	 6.000	 -0.946
1656030720.2545030	2.40900	1228.185000000	-9.17	1212.495434790	0.244721000	-2.42	0.244502024	 6.000	 -1.179
1656030721.9499810	2.39900	1223.760000000	-9.16	1208.147374160	0.243836000	-2.42	0.243617816	 6.000	 -1.109
1656030723.1481609	2.39400	1220.860000000	-9.16	1205.284372113	0.243287000	-2.41	0.243071457	 6.000	 -0.777
1656030724.8522520	2.38300	1217.655000000	-9.16	1202.140558007	0.242585000	-2.42	0.242369008	 6.000	 0.527
1656030726.0533960	2.37100	1210.635000000	-9.15	1195.230168211	0.241212000	-2.41	0.240998295	 6.000	 -1.182
1656030727.7558720	2.37500	1212.010000000	-9.15	1196.587671902	0.241426000	-2.41	0.241213168	 6.000	 -0.424
1656030728.9543200	2.35900	1203.925000000	-9.14	1188.625592045	0.239869000	-2.41	0.239657541	 6.000	 0.815
1656030731.1624341	2.35700	1199.955000000	-9.14	1184.726005337	0.239137000	-2.40	0.238927236	 6.000	 1.175
1656030732.3582480	2.34400	1196.445000000	-9.13	1181.280443236	0.238374000	-2.39	0.238165950	 6.000	 -1.208
1656030734.0607131	2.33900	1192.935000000	-9.13	1177.814931361	0.237672000	-2.39	0.237465601	 6.000	 0.132
1656030735.2558920	2.32400	1185.000000000	-9.12	1170.019868733	0.236115000	-2.38	0.235910982	 6.000	 -0.938
1656030736.9530079	2.33100	1185.155000000	-9.12	1170.172909306	0.236207000	-2.38	0.236002902	 6.000	 -0.491
1656030738.1577990	2.32100	1181.190000000	-9.11	1166.277632130	0.235322000	-2.38	0.235119690	 6.000	 -0.773
1656030739.8612590	2.30800	1174.015000000	-9.11	1159.212683222	0.233949000	-2.37	0.233748885	 6.000	 1.121
1656030741.0564251	2.30800	1171.420000000	-9.11	1156.650401724	0.233369000	-2.37	0.233169381	 6.000	 0.053
1656030743.2582071	2.29700	1165.165000000	-9.10	1150.493574848	0.232148000	-2.36	0.231950429	 6.000	 1.086
1656030744.4560161	2.28800	1159.370000000	-9.10	1144.790743546	0.230989000	-2.36	0.230793412	 6.000	 -0.282
1656030746.1608291	2.28100	1156.165000000	-9.09	1141.645181030	0.230317000	-2.35	0.230123961	 6.000	 -0.807
1656030747.3656261	2.27100	1147.925000000	-9.08	1133.546622134	0.228669000	-2.34	0.228478321	 6.000	 -1.004
1656030749.0620971	2.26700	1143.500000000	-9.08	1129.177047638	0.227815000	-2.34	0.227625033	 6.000	 0.712
1656030750.2609050	2.25700	1137.700000000	-9.07	1123.468487324	0.226624000	-2.33	0.226436959	 6.000	 1.377
1656030751.9610150	2.25100	1133.430000000	-9.07	1119.270609606	0.225739000	-2.33	0.225552689	 6.000	 0.465
1656030753.1601779	2.24700	1126.255000000	-9.06	1112.203821532	0.224458000	-2.32	0.224274651	 6.000	 -0.349
1656030754.8686299	2.23700	1119.390000000	-9.05	1105.461362821	0.223023000	-2.31	0.222841766	 6.000	 0.084
1656030756.0654421	2.22800	1111.915000000	-9.04	1098.097680162	0.221498000	-2.30	0.221318939	 6.000	 0.647
1656030758.2625821	2.22100	1106.875000000	-9.04	1093.138520716	0.220429000	-2.30	0.220251730	 6.000	 -1.275
1656030759.4660211	2.21400	1099.095000000	-9.03	1085.473142248	0.218965000	-2.29	0.218789826	 6.000	 0.216
1656030761.1664901	2.20500	1090.400000000	-9.02	1076.921725364	0.217347000	-2.29	0.217174029	 6.000	 0.959
1656030762.3702810	2.19300	1078.955000000	-9.01	1065.653592481	0.214906000	-2.26	0.214738543	 6.000	 1.111
1656030764.0697560	2.18600	1071.935000000	-9.00	1058.737701376	0.213563000	-2.26	0.213396590	 6.000	 -0.382
1656030765.2705541	2.17900	1057.135000000	-8.98	1044.171815664	0.210633000	-2.25	0.210470610	 6.000	 -1.030
1656030766.9663939	2.17700	1056.830000000	-8.98	1043.870555746	0.210450000	-2.24	0.210288615	 6.000	 0.157
1656030768.1771650	2.16700	1045.535000000	-8.97	1032.748226241	0.208253000	-2.23	0.208095003	 6.000	 1.227
1656030769.8816280	2.15600	1031.345000000	-8.95	1018.782236278	0.205384000	-2.22	0.205229850	 6.000	 0.120
1656030771.0734529	2.14900	1018.375000000	-8.95	1005.986812253	0.202943000	-2.21	0.202792324	 6.000	 1.435
1656030773.2772200	2.14000	1011.815000000	-8.93	999.539543894	0.201631000	-2.19	0.201483729	 6.000	 -0.498
1656030774.4773760	2.12900	996.555000000	-8.92	984.513251189	0.198609000	-2.18	0.198464730	 6.000	 0.294
1656030776.1738660	2.13100	994.575000000	-8.92	982.557176273	0.198091000	-2.18	0.197947106	 6.000	 1.411
1656030777.3786671	2.11600	970.465000000	-8.89	958.801425428	0.193238000	-2.15	0.193101461	 6.000	 -1.113
1656030779.0817549	2.11300	957.035000000	-8.87	945.579261757	0.190614000	-2.14	0.190481556	 6.000	 -1.063
1656030780.2775660	2.11100	949.100000000	-8.87	937.754570839	0.189088000	-2.15	0.188955136	 6.000	 -0.220
1656030781.9720500	2.10300	928.195000000	-8.84	917.159323353	0.184968000	-2.11	0.184842351	 6.000	 0.977
1656030783.1742041	2.09100	913.855000000	-8.83	903.033912200	0.181886000	-2.09	0.181764541	 6.000	 -0.428
1656030784.8803041	2.08900	905.155000000	-8.82	894.451468907	0.180451000	-2.09	0.180331189	 6.000	 -0.505
1656030786.0771120	2.07500	878.605000000	-8.80	868.271778841	0.175019000	-2.06	0.174906110	 6.000	 0.018
1656030787.7799120	2.07300	862.125000000	-8.77	852.040746655	0.171693000	-2.05	0.171583543	 6.000	 -0.496
1656030788.9777379	2.06600	834.965000000	-8.75	825.251701839	0.166505000	-2.02	0.166401940	 6.000	 0.168
1656030791.1795189	2.05500	818.945000000	-8.72	809.470166773	0.163117000	-2.00	0.163017236	 6.000	 0.754
1656030792.3846540	2.05100	800.940000000	-8.71	791.711602473	0.159669000	-1.99	0.159573091	 6.000	 0.690
1656030794.0810189	2.04100	750.280000000	-8.65	741.742008583	0.149598000	-1.93	0.149513487	 6.000	 0.619
1656030795.2839310	2.02600	715.030000000	-8.62	706.960589247	0.142457000	-1.89	0.142379502	 6.000	 -0.355
1656030796.9824109	2.02400	703.280000000	-8.60	695.376258198	0.139588000	-1.87	0.139513502	 6.000	 0.047
1656030798.1812170	2.01900	666.965000000	-8.56	659.531901292	0.133119000	-1.84	0.133050660	 6.000	 -0.081
1656030799.8896720	2.01300	655.520000000	-8.56	648.224668351	0.130372000	-1.83	0.130305507	 6.000	 0.632
1656030801.0851259	1.99500	569.310000000	-8.45	563.132760820	0.113343000	-1.73	0.113291098	 6.000	 0.348
1656030803.2896140	1.99600	572.510000000	-8.45	566.289228631	0.113648000	-1.74	0.113595598	 6.000	 -1.004
1656030804.4903951	1.98100	506.595000000	-8.38	501.183642121	0.101136000	-1.66	0.101093454	 6.000	 -1.064
1656030806.1948619	1.97900	495.608000000	-8.36	490.336675822	0.098450200	-1.66	0.098409082	 6.000	 -0.458
1656030807.3913231	1.97100	449.068500000	-8.31	444.353540800	0.089294900	-1.60	0.089259998	 6.000	 -0.709
1656030809.0961430	1.96700	423.128500000	-8.27	418.724237510	0.084320500	-1.57	0.084288765	 6.000	 1.316
1656030810.2925940	1.95900	392.611000000	-8.24	388.559811257	0.078186500	-1.55	0.078157965	 6.000	 -0.972
1656030811.9944119	1.94700	318.758500000	-8.15	315.540718743	0.063141300	-1.46	0.063120689	 6.000	 -0.516
1656030813.1988480	1.94600	309.144500000	-8.15	306.023769486	0.061523700	-1.44	0.061504270	 6.000	 -1.208
1656030814.9016731	1.93700	278.474000000	-8.10	275.695848059	0.055511700	-1.43	0.055494460	 6.000	 -1.183
1656030816.1004701	1.93100	247.651500000	-8.06	245.202720270	0.049286100	-1.37	0.049271929	 6.000	 0.704
1656030822.3568170	1.89500	143.319000000	-7.90	141.958138071	0.028412000	-1.27	0.028405065	 6.000	 0.599
1656030824.0918250	1.89100	142.479500000	-7.91	141.124557385	0.028190700	-1.25	0.028184013	 6.000	 -0.096
1656030825.2946191	1.88600	124.741000000	-7.86	123.569080290	0.024871900	-1.29	0.024865596	 6.000	 0.132
1656030826.9944510	1.88000	114.937500000	-7.85	113.860971928	0.022812000	-1.21	0.022806947	 6.000	 -0.806
1656030828.1938930	1.87000	94.185500000	-7.83	93.307375068	0.018745500	-1.20	0.018741389	 6.000	 -1.125
1656030834.2171960	1.84100	61.150000000	-7.75	60.591161744	0.012184200	-1.13	0.012181839	 6.000	 0.770
1656030835.9076941	1.83300	56.210000000	-7.77	55.693922790	0.011200000	-1.11	0.011197898	 6.000	 -0.651
1656030837.0975249	1.82300	46.215350000	-7.75	45.793649228	0.009166780	-1.15	0.009164946	 6.000	 -0.905
1656030842.8478439	1.79700	29.783400000	-7.73	29.512475785	0.005926160	-1.11	0.005925048	 6.000	 0.325
1656030845.0962100	1.78200	25.510950000	-7.67	25.282471347	0.005077390	-1.11	0.005076437	 6.000	 0.604
1656030846.2990119	1.78000	22.115850000	-7.69	21.917159194	0.004428890	-1.10	0.004428077	 6.000	 -0.472
1656030852.2398219	1.75100	13.246600000	-7.70	13.127034113	0.002655040	-1.15	0.002654503	 6.000	 1.169
1656030853.9303191	1.74600	12.030700000	-7.70	11.922109017	0.002406140	-1.11	0.002405688	 6.000	 1.413
1656030855.1221430	1.73600	10.018400000	-7.68	9.928534044	0.002019900	-0.89	0.002019657	 6.000	 -1.018
1656030856.8136330	1.73100	8.645100000	-7.69	8.567431636	0.001750000	-0.87	0.001749798	 6.000	 0.805
1656030862.0619950	1.70700	4.849455000	-7.92	4.803198113	0.001003270	-1.03	0.001003109	 6.000	 0.947
1656030865.3349309	1.69000	3.175755000	-7.60	3.147887023	0.000660423	-0.95	0.000660331	 6.000	 -0.026
1656030868.5563440	1.67500	2.274525000	-7.69	2.254090461	0.000476839	-0.60	0.000476813	 6.000	 0.182
1656030873.8602140	1.64700	1.127130000	-7.54	1.117379102	0.000250103	-0.26	0.000250100	 6.000	 -1.038
1656030875.1122320	1.64400	1.095540000	-7.58	1.085956692	0.000243069	-1.81	0.000242948	 6.000	 -0.501
1656030876.3150330	1.63100	0.839240000	-7.73	0.831605867	0.000201345	-2.47	0.000201159	 6.000	 -1.166
1656030880.0381069	1.61700	0.627345000	-8.56	0.620363230	0.000158311	-0.31	0.000158309	 6.000	 0.708
1656030883.2591691	1.59900	0.460448000	-6.17	0.457782525	0.000124992	-3.80	0.000124717	 6.000	 1.070
1656030886.5374341	1.58700	0.368061000	-7.28	0.365090706	0.000113607	3.48	0.000113398	 6.000	 -0.790
1656030887.7272620	1.58400	0.358226000	-8.28	0.354491895	0.000105381	0.83	0.000105370	 6.000	 -1.141
1656030888.9200859	1.57400	0.301302500	-5.65	0.299837696	0.000100434	1.10	0.000100415	 6.000	 0.881
1656030890.6199031	1.57000	0.308903500	-6.24	0.307073347	0.000092388	5.34	0.000091987	 6.000	 1.068
1656030893.8449619	1.55100	0.202955000	-5.04	0.202170297	0.000064731	-5.08	0.000064477	 6.000	 -0.728
1656030898.0637190	1.53900	0.132099500	-2.99	0.131919185	0.000058800	-0.46	0.000058798	 6.000	 1.148
1656030899.3207250	1.53200	0.146702500	-4.36	0.146277564	0.000052780	1.96	0.000052749	 6.000	 -0.998
1656030900.5231631	1.52600	0.114851500	-9.74	0.113194628	0.000054509	-0.44	0.000054507	 6.000	 1.405
1656030902.2206409	1.52100	0.125282000	-15.22	0.120886575	0.000056684	2.44	0.000056633	 6.000	 -1.037
1656030903.4224401	1.51400	0.100509000	-3.95	0.100269762	0.000048787	3.41	0.000048700	 6.000	 0.691
1656030907.1435230	1.50400	0.097528500	-8.39	0.096485229	0.000046350	-1.76	0.000046328	 6.000	 -0.898
1656030910.3659389	1.49600	0.070781000	-19.84	0.066578888	0.000041962	-3.88	0.000041866	 6.000	 -1.106
1656030911.6169491	1.49300	0.064913500	-14.09	0.062961098	0.000044510	-3.05	0.000044447	 6.000	 -0.446
1656030912.8207641	1.49000	0.066552500	-2.21	0.066503088	0.000053495	3.48	0.000053397	 6.000	 -0.099
1656030914.5232179	1.48900	0.091866000	-10.69	0.090272872	0.000040151	4.79	0.000040011	 6.000	 0.610
1656030915.7256539	1.48700	0.061020500	-14.24	0.059144527	0.000042424	-3.88	0.000042327	 6.000	 -0.713
1656030917.4281189	1.48600	0.075754000	-3.48	0.075614313	0.000052341	10.27	0.000051503	 6.000	 0.707
1656030918.6608350	1.48500	0.067670000	-9.70	0.066703350	0.000037126	-4.22	0.000037026	 6.000	 1.221
1656030919.8516610	1.48400	0.059679500	-5.16	0.059437645	0.000035837	-13.24	0.000034885	 6.000	 -0.968
1656030921.0538371	1.48300	0.045281200	-15.00	0.043738281	0.000050538	2.55	0.000050487	 6.000	 1.135
1656030924.7718980	1.48100	0.068760000	-8.69	0.067971016	0.000050389	7.43	0.000049965	 6.000	 1.204
1656030926.0192261	1.47900	0.057202000	-19.94	0.053773436	0.000051871	-0.97	0.000051864	 6.000	 -1.044
1656030927.2290030	1.47800	0.069728500	6.17	0.069324066	0.000048243	-3.76	0.000048139	 6.000	 0.898
1656030928.9314661	1.47700	0.061598000	-3.11	0.061507396	0.000036590	-16.88	0.000035013	 6.000	 1.304
1656030930.1282761	1.47500	0.043381300	9.13	0.042831456	0.000047781	2.72	0.000047727	 6.000	 -1.147
1656030931.8290980	1.47400	0.069542000	2.26	0.069488099	0.000049643	4.67	0.000049479	 6.000	 0.005
1656030933.0289021	1.47300	0.055637500	5.96	0.055336355	0.000039138	-2.82	0.000039091	 6.000	 1.276
1656030935.2286849	1.47200	0.052592000	2.35	0.052547694	0.000043795	-15.10	0.000042282	 6.000	 -0.014
1656030936.4364669	1.47000	0.049472150	6.38	0.049165374	0.000035271	16.23	0.000033866	 6.000	 -1.271
1656030938.1333001	1.46900	0.049220700	-17.13	0.047037217	0.000049338	8.00	0.000048858	 6.000	 -0.182
1656030939.3357420	1.46800	0.033779200	-2.91	0.033735642	0.000043370	8.15	0.000042932	 6.000	 0.220
1656030941.0344989	1.46700	0.058366500	-4.17	0.058211986	0.000034750	7.93	0.000034418	 6.000	 -1.175
1656030942.2370090	1.46500	0.042394100	2.86	0.042341222	0.000046417	9.58	0.000045770	 6.000	 0.079
1656030943.9424651	1.46500	0.049714300	6.75	0.049369703	0.000038572	-2.86	0.000038524	 6.000	 -1.065
1656030945.1426229	1.46300	0.046380150	5.74	0.046147923	0.000038386	-0.62	0.000038383	 6.000	 1.088
1656030947.3334291	1.46200	0.033015550	-1.78	0.032999690	0.000042618	-1.32	0.000042606	 6.000	 -1.033
1656030948.5335889	1.46100	0.048606000	0.23	0.048605595	0.000037365	-6.40	0.000037132	 6.000	 1.113
1656030950.2350571	1.46000	0.054166000	0.17	0.054165750	0.000048295	6.25	0.000048008	 6.000	 -1.008
1656030951.4378481	1.45900	0.048196250	-16.36	0.046245773	0.000031516	-17.56	0.000030047	 6.000	 1.092
1656030953.1373279	1.45800	0.048037900	7.96	0.047575519	0.000042305	2.40	0.000042267	 6.000	 1.055
1656030954.3351369	1.45700	0.028442750	15.48	0.027410952	0.000034511	-5.10	0.000034375	 6.000	 -1.089
1656030956.0352409	1.45600	0.054902000	3.58	0.054795103	0.000039011	-4.06	0.000038914	 6.000	 1.087
1656030957.2360420	1.45500	0.047181100	-1.52	0.047164542	0.000048697	-5.59	0.000048465	 6.000	 0.368
